t (s)	R (ohm)
0.000	39414752.000
0.500	39430884.000
1.000	39464804.000
1.500	39355920.000
2.000	39305104.000
2.500	39617192.000
3.000	39383448.000
3.500	39383456.000
4.000	39368168.000
4.500	39445820.000
5.000	39178004.000
5.500	39091916.000
6.000	39151136.000
6.500	39051704.000
7.000	39005044.000
7.500	39097296.000
8.000	39070524.000
8.500	39134836.000
9.000	39089956.000
9.500	39096888.000
10.000	39042016.000
10.500	38973092.000
11.000	39030548.000
11.500	38935052.000
12.000	39005044.000
12.500	38857288.000
13.000	38940372.000
13.500	38963800.000
14.000	38864932.000
14.500	38891032.000
15.000	38856888.000
15.500	38958104.000
16.000	38851228.000
16.500	38869264.000
17.000	38786108.000
17.500	38841192.000
18.000	38775732.000
18.500	38880608.000
19.000	38812648.000
19.500	38757764.000
20.000	38880256.000
20.500	38735364.000
21.000	38764196.000
21.500	38751736.000
22.000	38711804.000
22.500	38692184.000
23.000	38562992.000
23.500	38474036.000
24.000	38471696.000
24.500	38292284.000
25.000	38429512.000
25.500	38449620.000
26.000	38601832.000
26.500	38568164.000
27.000	38414572.000
27.500	38415736.000
28.000	38499272.000
28.500	38456720.000
29.000	38547948.000
29.500	38459456.000
30.000	38661516.000
30.500	38642352.000
31.000	39032316.000
31.500	39394768.000
32.000	40008720.000
32.500	39808384.000
33.000	40033464.000
33.500	40065536.000
34.000	40183728.000
34.500	40252924.000
35.000	40271776.000
35.500	40313668.000
36.000	40536612.000
36.500	40417656.000
37.000	40545748.000
37.500	40531660.000
38.000	40510468.000
38.500	40568660.000
39.000	40506244.000
39.500	40620384.000
40.000	40620348.000
40.500	40623660.000
41.000	40612032.000
41.500	40661760.000
42.000	40553248.000
42.500	40671384.000
43.000	40659328.000
43.500	40667256.000
44.000	40725552.000
44.500	40656832.000
45.000	40708340.000
45.500	40555852.000
46.000	40702020.000
46.500	40751168.000
47.000	40767152.000
47.500	40863788.000
48.000	40851060.000
48.500	40861148.000
49.000	41013844.000
49.500	40923708.000
50.000	40900948.000
50.500	40947504.000
51.000	40819764.000
51.500	40870832.000
52.000	41001992.000
52.500	40875580.000
53.000	40830840.000
53.500	40858652.000
54.000	40899700.000
54.500	40649692.000
55.000	40945592.000
55.500	40850652.000
56.000	40783572.000
56.500	40955164.000
57.000	40902636.000
57.500	40633388.000
58.000	40662608.000
58.500	40749520.000
59.000	40696100.000
59.500	40652184.000
60.000	40776404.000
60.500	40675648.000
61.000	40699124.000
61.500	40733524.000
62.000	40788944.000
62.500	40663812.000
63.000	40802480.000
63.500	40693196.000
64.000	40661776.000
64.500	40668896.000
65.000	40692384.000
65.500	40631320.000
66.000	40775152.000
66.500	40765904.000
67.000	40527896.000
67.500	40552856.000
68.000	40679860.000
68.500	40690328.000
69.000	40660544.000
69.500	40692388.000
70.000	40826128.000
70.500	40737260.000
71.000	40761212.000
71.500	40778040.000
72.000	40872112.000
72.500	40860748.000
73.000	41045904.000
73.500	40892520.000
74.000	40933628.000
74.500	40833332.000
75.000	40818124.000
75.500	40792420.000
76.000	40807208.000
76.500	40765508.000
77.000	40751980.000
77.500	40599580.000
78.000	40709176.000
78.500	40783172.000
79.000	40831116.000
79.500	40799592.000
80.000	40756524.000
80.500	40837048.000
81.000	40810508.000
81.500	40889028.000
82.000	40798768.000
82.500	40742760.000
83.000	40801248.000
83.500	40800016.000
84.000	40886936.000
84.500	40609988.000
85.000	40565824.000
85.500	40633264.000
86.000	40686488.000
86.500	40810092.000
87.000	40765080.000
87.500	40699532.000
88.000	40746616.000
88.500	40710132.000
89.000	40770200.000
89.500	40740276.000
90.000	40671092.000
90.500	40720588.000
91.000	40637228.000
91.500	40678260.000
92.000	40610140.000
92.500	40691996.000
93.000	40695424.000
93.500	40561304.000
94.000	40807784.000
94.500	40767732.000
95.000	40787864.000
95.500	40601344.000
96.000	40662736.000
96.500	40584128.000
97.000	40657648.000
97.500	40471408.000
98.000	40256208.000
98.500	40483520.000
99.000	40607528.000
99.500	40517520.000
100.000	40569100.000
100.500	40584528.000
101.000	40519608.000
101.500	40485132.000
102.000	40466924.000
102.500	40442468.000
103.000	40432548.000
103.500	40645984.000
104.000	40691156.000
104.500	40541236.000
105.000	40573316.000
105.500	40556656.000
106.000	40319884.000
106.500	40609984.000
107.000	40576636.000
107.500	40577832.000
108.000	40575372.000
108.500	40515472.000
109.000	40557052.000
109.500	40491396.000
110.000	40509612.000
110.500	40532924.000
111.000	40535800.000
111.500	40484308.000
112.000	40534580.000
112.500	40741100.000
113.000	40602448.000
113.500	40564972.000
114.000	40490968.000
114.500	40561188.000
115.000	40539576.000
115.500	40618332.000
116.000	40594088.000
116.500	40520008.000
117.000	40597528.000
117.500	40561668.000
118.000	40506740.000
118.500	40536716.000
119.000	40456160.000
119.500	40472324.000
120.000	40465268.000
120.500	40451984.000
121.000	40452372.000
121.500	40351156.000
122.000	40366428.000
122.500	40501720.000
123.000	40380420.000
123.500	40420088.000
124.000	40486348.000
124.500	40473952.000
125.000	40351988.000
125.500	40333472.000
126.000	40315392.000
126.500	40218092.000
127.000	40278748.000
127.500	40319864.000
128.000	40327696.000
128.500	40355656.000
129.000	40368904.000
129.500	40263560.000
130.000	40343336.000
130.500	40289000.000
131.000	40182484.000
131.500	40171872.000
132.000	40293968.000
132.500	40312020.000
133.000	40157564.000
133.500	40110676.000
134.000	40035492.000
134.500	40148992.000
135.000	40261520.000
135.500	40079752.000
136.000	40332184.000
136.500	40160836.000
137.000	40270556.000
137.500	40330536.000
138.000	40427532.000
138.500	40282052.000
139.000	40270956.000
139.500	40468512.000
140.000	40429592.000
140.500	40287396.000
141.000	40297660.000
141.500	40476416.000
142.000	40377968.000
142.500	40273436.000
143.000	40469784.000
143.500	40432116.000
144.000	40355304.000
144.500	40526220.000
145.000	40327680.000
145.500	40383348.000
146.000	40681096.000
146.500	40624620.000
147.000	40457392.000
147.500	40409364.000
148.000	40224228.000
148.500	40279988.000
149.000	40204160.000
149.500	40159232.000
150.000	40187796.000
150.500	40366032.000
151.000	41142836.000
151.500	41957692.000
152.000	43136644.000
152.500	44657220.000
153.000	45625948.000
153.500	45417972.000
154.000	45362596.000
154.500	45476564.000
155.000	45826184.000
155.500	46007168.000
156.000	46331408.000
156.500	46572704.000
157.000	46624816.000
157.500	46736580.000
158.000	46953108.000
158.500	46998752.000
159.000	47159224.000
159.500	47261748.000
160.000	47456700.000
160.500	47562940.000
161.000	47719936.000
161.500	47848072.000
162.000	47720436.000
162.500	48199340.000
163.000	48227336.000
163.500	48442680.000
164.000	48853224.000
164.500	48658976.000
165.000	48785308.000
165.500	48823952.000
166.000	49314076.000
166.500	49314076.000
167.000	49738304.000
167.500	49675272.000
168.000	49989580.000
168.500	50104744.000
169.000	50363804.000
169.500	50638548.000
170.000	50676000.000
170.500	50776580.000
171.000	50905900.000
171.500	51212576.000
172.000	51211512.000
172.500	51246716.000
173.000	51341028.000
173.500	51639996.000
174.000	51934516.000
174.500	52136444.000
175.000	51891508.000
175.500	52108900.000
176.000	52145972.000
176.500	52321344.000
177.000	53039452.000
177.500	52698224.000
178.000	52929724.000
178.500	53063120.000
179.000	53496460.000
179.500	53370700.000
180.000	51804088.000
180.500	46890960.000
181.000	44569200.000
181.500	43480216.000
182.000	42791304.000
182.500	42522852.000
183.000	42285300.000
183.500	42186820.000
184.000	41900428.000
184.500	41933452.000
185.000	41940704.000
185.500	41762500.000
186.000	41705356.000
186.500	41454504.000
187.000	41408512.000
187.500	41340432.000
188.000	41286240.000
188.500	41198716.000
189.000	41115444.000
189.500	40953088.000
190.000	40847724.000
190.500	40895144.000
191.000	40975264.000
191.500	40838060.000
192.000	40816852.000
192.500	40991424.000
193.000	40821564.000
193.500	40812748.000
194.000	40639700.000
194.500	40739868.000
195.000	40578764.000
195.500	40569616.000
196.000	40668208.000
196.500	40780676.000
197.000	40866728.000
197.500	40810492.000
198.000	40728424.000
198.500	40777608.000
199.000	40676044.000
199.500	40834548.000
200.000	40753644.000
200.500	40768912.000
201.000	40500496.000
201.500	40551204.000
202.000	40643800.000
202.500	40500904.000
203.000	40581632.000
203.500	40586172.000
204.000	40594912.000
204.500	40641308.000
205.000	40683152.000
205.500	40590388.000
206.000	40642568.000
206.500	40586584.000
207.000	40370524.000
207.500	40459468.000
208.000	40500088.000
208.500	40448264.000
209.000	40411088.000
209.500	40511748.000
210.000	40432452.000
210.500	40224200.000
211.000	40455256.000
211.500	40472644.000
212.000	40348268.000
212.500	40502544.000
213.000	40512488.000
213.500	40326052.000
214.000	40422660.000
214.500	40555820.000
215.000	40476008.000
215.500	40352396.000
216.000	40352396.000
216.500	40466060.000
217.000	40431724.000
217.500	40385004.000
218.000	40372172.000
218.500	40582784.000
219.000	40494256.000
219.500	40471004.000
220.000	40386224.000
220.500	40436220.000
221.000	40275836.000
221.500	40245924.000
222.000	40250828.000
222.500	40327256.000
223.000	40267676.000
223.500	40419676.000
224.000	40427948.000
224.500	40390308.000
225.000	40420064.000
225.500	40401916.000
226.000	40315784.000
226.500	40644748.000
227.000	40469780.000
227.500	40443692.000
228.000	40519176.000
228.500	40443696.000
229.000	40480104.000
229.500	40533332.000
230.000	40557052.000
230.500	40575356.000
231.000	40621604.000
231.500	40658472.000
232.000	40689784.000
232.500	40643372.000
233.000	40534152.000
233.500	40451532.000
234.000	40488004.000
234.500	40516288.000
235.000	40230764.000
235.500	39992944.000
236.000	40599964.000
236.500	40485552.000
237.000	40525828.000
237.500	40476012.000
238.000	40391612.000
238.500	40492192.000
239.000	40587420.000
239.500	40614608.000
240.000	40627912.000
240.500	40642012.000
241.000	40593588.000
241.500	40538684.000
242.000	40704080.000
242.500	40806196.000
243.000	40633684.000
243.500	40605732.000
244.000	40490152.000
244.500	40574956.000
245.000	40512992.000
245.500	40442044.000
246.000	40465264.000
246.500	40406892.000
247.000	40409764.000
247.500	40283688.000
248.000	40385808.000
248.500	40377596.000
249.000	40326868.000
249.500	40331396.000
250.000	40203756.000
250.500	40285328.000
251.000	40336724.000
251.500	40353616.000
252.000	40425084.000
252.500	40417624.000
253.000	40250828.000
253.500	40302168.000
254.000	40126560.000
254.500	40165352.000
255.000	40252060.000
255.500	39906092.000
256.000	40204976.000
256.500	40283284.000
257.000	40300164.000
257.500	40195160.000
258.000	40032648.000
258.500	40046444.000
259.000	39983612.000
259.500	40080568.000
260.000	40055404.000
260.500	39964620.000
261.000	40135116.000
261.500	40142488.000
262.000	40087516.000
262.500	40064724.000
263.000	39926248.000
263.500	39738292.000
264.000	40011148.000
264.500	40188256.000
265.000	40287836.000
265.500	40199296.000
266.000	40331840.000
266.500	40395768.000
267.000	39901264.000
267.500	40415164.000
268.000	40274676.000
268.500	40325640.000
269.000	40345436.000
269.500	40563340.000
270.000	40142488.000
270.500	40217276.000
271.000	40238996.000
271.500	40266472.000
272.000	40226724.000
272.500	40118028.000
273.000	40033076.000
273.500	40155548.000
274.000	40153512.000
274.500	40321544.000
275.000	40201752.000
275.500	40016440.000
276.000	39998612.000
276.500	40106208.000
277.000	40067160.000
277.500	40014428.000
278.000	39945236.000
278.500	39984856.000
279.000	40085876.000
279.500	40126984.000
280.000	40096056.000
280.500	40169840.000
281.000	40189852.000
281.500	40156764.000
282.000	40181256.000
282.500	40305484.000
283.000	40158388.000
283.500	40059052.000
284.000	40029420.000
284.500	40058220.000
285.000	40029000.000
285.500	40077752.000
286.000	40052524.000
286.500	39962196.000
287.000	40036716.000
287.500	40113124.000
288.000	40070020.000
288.500	39910120.000
289.000	39925024.000
289.500	39894404.000
290.000	39955312.000
290.500	39930704.000
291.000	39965820.000
291.500	39958956.000
292.000	39975532.000
292.500	40039564.000
293.000	39903264.000
293.500	40077304.000
294.000	39839328.000
294.500	39986464.000
295.000	39771532.000
295.500	39960980.000
296.000	40074476.000
296.500	39942396.000
297.000	39820804.000
297.500	39882344.000
298.000	39813984.000
298.500	39832864.000
299.000	39880704.000
299.500	39802000.000
300.000	39882728.000
300.500	39811600.000
301.000	39547800.000
301.500	39059600.000
302.000	38879260.000
302.500	38533204.000
303.000	38543152.000
303.500	38304392.000
304.000	38174644.000
304.500	37630092.000
305.000	37719296.000
305.500	37670100.000
306.000	37564876.000
306.500	37462576.000
307.000	37397956.000
307.500	37388244.000
308.000	37344096.000
308.500	37532976.000
309.000	37433040.000
309.500	37433816.000
310.000	37394920.000
310.500	37224832.000
311.000	37295324.000
311.500	37211772.000
312.000	37220300.000
312.500	37193040.000
313.000	37234340.000
313.500	37252388.000
314.000	37215032.000
314.500	37179252.000
315.000	37112768.000
315.500	37156544.000
316.000	37039232.000
316.500	37074000.000
317.000	37042424.000
317.500	37044296.000
318.000	36974620.000
318.500	36936640.000
319.000	36968048.000
319.500	37004920.000
320.000	36945828.000
320.500	36994984.000
321.000	37011456.000
321.500	36869412.000
322.000	36754080.000
322.500	36802776.000
323.000	36769244.000
323.500	36924696.000
324.000	36929580.000
324.500	36859928.000
325.000	37549800.000
325.500	36994604.000
326.000	36798868.000
326.500	36919304.000
327.000	36830196.000
327.500	36830568.000
328.000	36864544.000
328.500	36787908.000
329.000	36720272.000
329.500	36875352.000
330.000	37053876.000
330.500	37311308.000
331.000	37567508.000
331.500	38169608.000
332.000	38474020.000
332.500	38634004.000
333.000	38687360.000
333.500	38638820.000
334.000	38636456.000
334.500	38837912.000
335.000	39034284.000
335.500	39035856.000
336.000	38954364.000
336.500	38954904.000
337.000	38818296.000
337.500	39011144.000
338.000	38863340.000
338.500	38963036.000
339.000	39050300.000
339.500	38970692.000
340.000	39094120.000
340.500	39140192.000
341.000	39025380.000
341.500	39094508.000
342.000	39130848.000
342.500	39170864.000
343.000	39276716.000
343.500	39234692.000
344.000	38993376.000
344.500	39181388.000
345.000	39205908.000
345.500	39086760.000
346.000	39047748.000
346.500	39192560.000
347.000	39086392.000
347.500	39090940.000
348.000	39190760.000
348.500	39121304.000
349.000	39106204.000
349.500	38837900.000
350.000	38951192.000
350.500	39057040.000
351.000	38978364.000
351.500	38835528.000
352.000	39001468.000
352.500	38929368.000
353.000	38922076.000
353.500	38892600.000
354.000	39045156.000
354.500	39081412.000
355.000	39020052.000
355.500	39228052.000
356.000	39101240.000
356.500	39236668.000
357.000	39211696.000
357.500	39151524.000
358.000	39111176.000
358.500	39018848.000
359.000	39034700.000
359.500	38967744.000
360.000	39106588.000
360.500	39057820.000
361.000	39064356.000
361.500	39161676.000
362.000	38958092.000
362.500	39077460.000
363.000	39008792.000
363.500	39100264.000
364.000	39230064.000
364.500	39190756.000
365.000	39293304.000
365.500	39269888.000
366.000	39117116.000
366.500	39220052.000
367.000	39227836.000
367.500	39234024.000
368.000	39350460.000
368.500	39295672.000
369.000	39195916.000
369.500	39407396.000
370.000	39343432.000
370.500	39442720.000
371.000	39345020.000
371.500	39273036.000
372.000	39284676.000
372.500	39316392.000
373.000	39317944.000
373.500	39237464.000
374.000	39104412.000
374.500	39137196.000
375.000	39034480.000
375.500	39076852.000
376.000	39106588.000
376.500	38954380.000
377.000	38977384.000
377.500	39105412.000
378.000	39206696.000
378.500	39034680.000
379.000	39086752.000
379.500	38970688.000
380.000	38842388.000
380.500	39011948.000
381.000	38950800.000
381.500	39002664.000
382.000	39036452.000
382.500	39189572.000
383.000	39289704.000
383.500	39325248.000
384.000	39384116.000
384.500	39428888.000
385.000	39400232.000
385.500	39351104.000
386.000	39405268.000
386.500	39285060.000
387.000	39160868.000
387.500	39235452.000
388.000	39228092.000
388.500	38976216.000
389.000	39120920.000
389.500	39191968.000
390.000	39153112.000
390.500	39139192.000
391.000	39182360.000
391.500	39192732.000
392.000	39317164.000
392.500	39319952.000
393.000	39294080.000
393.500	39219660.000
394.000	39388500.000
394.500	39332412.000
395.000	39236668.000
395.500	39134824.000
396.000	39133608.000
396.500	39105412.000
397.000	39195744.000
397.500	39230464.000
398.000	39293244.000
398.500	39131024.000
399.000	39030916.000
399.500	39011392.000
400.000	39040228.000
400.500	39161660.000
401.000	39244456.000
401.500	39082200.000
402.000	39146744.000
402.500	39026964.000
403.000	39253440.000
403.500	39167432.000
404.000	39125900.000
404.500	39064744.000
405.000	39067932.000
405.500	39113552.000
406.000	39042780.000
406.500	39005828.000
407.000	39142976.000
407.500	39050112.000
408.000	39142172.000
408.500	39201524.000
409.000	39178624.000
409.500	39036668.000
410.000	39001876.000
410.500	38928172.000
411.000	38895936.000
411.500	39001488.000
412.000	38967144.000
412.500	39052296.000
413.000	39034284.000
413.500	39004644.000
414.000	38935044.000
414.500	38912432.000
415.000	39005808.000
415.500	39025768.000
416.000	38992564.000
416.500	39005824.000
417.000	39051296.000
417.500	39067524.000
418.000	39063568.000
418.500	38964184.000
419.000	38937012.000
419.500	38896328.000
420.000	38819084.000
420.500	38878476.000
421.000	38753692.000
421.500	38876508.000
422.000	38998520.000
422.500	38770472.000
423.000	38848696.000
423.500	38952364.000
424.000	38881016.000
424.500	39387308.000
425.000	39087744.000
425.500	38989044.000
426.000	39070304.000
426.500	39158872.000
427.000	39095864.000
427.500	39024392.000
428.000	39015492.000
428.500	39148908.000
429.000	39176784.000
429.500	39142344.000
430.000	39185768.000
430.500	39233644.000
431.000	39406876.000
431.500	39298324.000
432.000	39130260.000
432.500	39119296.000
433.000	39148744.000
433.500	39047736.000
434.000	39016076.000
434.500	38911244.000
435.000	39018452.000
435.500	38939944.000
436.000	38923436.000
436.500	38978392.000
437.000	38991216.000
437.500	38956544.000
438.000	38989240.000
438.500	39165844.000
439.000	39068120.000
439.500	38948820.000
440.000	39045144.000
440.500	39045540.000
441.000	39045156.000
441.500	38949992.000
442.000	39004236.000
442.500	38926964.000
443.000	38854352.000
443.500	38829072.000
444.000	39095288.000
444.500	39042792.000
445.000	38963004.000
445.500	39055444.000
446.000	38940744.000
446.500	38943124.000
447.000	38951200.000
447.500	38848676.000
448.000	38791748.000
448.500	38741628.000
449.000	38796176.000
449.500	38980720.000
450.000	39871832.000
450.500	39337836.000
451.000	40603804.000
451.500	41822700.000
452.000	43221192.000
452.500	44795776.000
453.000	44674200.000
453.500	44779556.000
454.000	45097440.000
454.500	45073628.000
455.000	45830776.000
455.500	46135624.000
456.000	46278052.000
456.500	46409000.000
457.000	46430336.000
457.500	46908736.000
458.000	47201888.000
458.500	47554180.000
459.000	47670484.000
459.500	48250344.000
460.000	47685368.000
460.500	48536924.000
461.000	48901400.000
461.500	49239776.000
462.000	49192716.000
462.500	49502460.000
463.000	49684688.000
463.500	49590952.000
464.000	50058484.000
464.500	50246956.000
465.000	50298116.000
465.500	50384872.000
466.000	50755748.000
466.500	50901728.000
467.000	51048564.000
467.500	51302524.000
468.000	51266776.000
468.500	51529568.000
469.000	51721056.000
469.500	52011316.000
470.000	51888272.000
470.500	52149108.000
471.000	52389504.000
471.500	52275432.000
472.000	52639140.000
472.500	52551988.000
473.000	52955184.000
473.500	53285340.000
474.000	53223616.000
474.500	53400672.000
475.000	53676312.000
475.500	53645028.000
476.000	53715764.000
476.500	54058832.000
477.000	54312032.000
477.500	54322020.000
478.000	54237468.000
478.500	54386244.000
479.000	54470728.000
479.500	54717128.000
480.000	54626888.000
480.500	50085396.000
481.000	47178572.000
481.500	43781152.000
482.000	42480988.000
482.500	41384984.000
483.000	41393656.000
483.500	41259524.000
484.000	41032964.000
484.500	41016312.000
485.000	40798580.000
485.500	40623676.000
486.000	40594472.000
486.500	40515840.000
487.000	40348228.000
487.500	40264364.000
488.000	40050076.000
488.500	40295164.000
489.000	40209036.000
489.500	40295564.000
490.000	40175944.000
490.500	40141272.000
491.000	40074860.000
491.500	40089092.000
492.000	39991712.000
492.500	39859808.000
493.000	39953696.000
493.500	40002640.000
494.000	39831636.000
494.500	39878660.000
495.000	39892784.000
495.500	39791924.000
496.000	39765860.000
496.500	39530364.000
497.000	39537060.000
497.500	39553704.000
498.000	39436860.000
498.500	39486544.000
499.000	39484160.000
499.500	39552508.000
500.000	39481356.000
500.500	39401004.000
501.000	39512152.000
501.500	39480540.000
502.000	39589728.000
502.500	39654520.000
503.000	39562444.000
503.500	39573456.000
504.000	39646148.000
504.500	39631052.000
505.000	39560840.000
505.500	39432488.000
506.000	39382220.000
506.500	39184972.000
507.000	39236656.000
507.500	39269440.000
508.000	39298488.000
508.500	39276444.000
509.000	39222676.000
509.500	39283488.000
510.000	39204704.000
510.500	39440748.000
511.000	39370804.000
511.500	39450216.000
512.000	39491124.000
512.500	39563532.000
513.000	39520852.000
513.500	39518836.000
514.000	39476568.000
514.500	39466780.000
515.000	39527264.000
515.500	39416856.000
516.000	39453420.000
516.500	39452228.000
517.000	39478272.000
517.500	39359512.000
518.000	39419924.000
518.500	39519356.000
519.000	39501532.000
519.500	39502628.000
520.000	39484976.000
520.500	39505060.000
521.000	39425412.000
521.500	39413276.000
522.000	39310912.000
522.500	39335604.000
523.000	39372000.000
523.500	39324960.000
524.000	39326968.000
524.500	39321920.000
525.000	39341452.000
525.500	39360300.000
526.000	39311300.000
526.500	39326564.000
527.000	40332968.000
527.500	39112548.000
528.000	39202268.000
528.500	39154676.000
529.000	39078424.000
529.500	39179568.000
530.000	39220440.000
530.500	39134980.000
531.000	39195108.000
531.500	39277652.000
532.000	39220060.000
532.500	39306688.000
533.000	39117104.000
533.500	39180364.000
534.000	39156664.000
534.500	39173004.000
535.000	39317152.000
535.500	39266416.000
536.000	39238676.000
536.500	39368116.000
537.000	39310524.000
537.500	39223488.000
538.000	39331596.000
538.500	39305316.000
539.000	39238640.000
539.500	39243656.000
540.000	39035464.000
540.500	39189956.000
541.000	39255012.000
541.500	39175588.000
542.000	39100836.000
542.500	39117900.000
543.000	39106392.000
543.500	39163640.000
544.000	39200500.000
544.500	39164020.000
545.000	39151896.000
545.500	39158864.000
546.000	39181364.000
546.500	39176380.000
547.000	39144544.000
547.500	39171220.000
548.000	39154292.000
548.500	39129432.000
549.000	39096272.000
549.500	38984712.000
550.000	39129424.000
550.500	39124052.000
551.000	39060992.000
551.500	39147332.000
552.000	39106576.000
552.500	39019636.000
553.000	39073296.000
553.500	39173212.000
554.000	39082972.000
554.500	38975808.000
555.000	39107380.000
555.500	39038616.000
556.000	38949404.000
556.500	39111740.000
557.000	39235620.000
557.500	39079596.000
558.000	39053244.000
558.500	39037416.000
559.000	39047712.000
559.500	39071280.000
560.000	39008760.000
560.500	39063568.000
561.000	39127452.000
561.500	39131416.000
562.000	39083792.000
562.500	39134604.000
563.000	39130612.000
563.500	39168244.000
564.000	39023600.000
564.500	38892196.000
565.000	38901848.000
565.500	39007792.000
566.000	38915996.000
566.500	38921524.000
567.000	38842628.000
567.500	38855540.000
568.000	38799348.000
568.500	38863176.000
569.000	38839872.000
569.500	38937400.000
570.000	38788840.000
570.500	38908716.000
571.000	38855136.000
571.500	38682524.000
572.000	38828692.000
572.500	38779252.000
573.000	38808148.000
573.500	38786104.000
574.000	38701324.000
574.500	38777292.000
575.000	38749224.000
575.500	38930504.000
576.000	39062176.000
576.500	39006992.000
577.000	38985472.000
577.500	38952352.000
578.000	38972868.000
578.500	38964404.000
579.000	38938168.000
579.500	39076036.000
580.000	38930908.000
580.500	38892200.000
581.000	38892192.000
581.500	38754064.000
582.000	38890056.000
582.500	38828520.000
583.000	38893768.000
583.500	38946260.000
584.000	39005804.000
584.500	38861204.000
585.000	38800924.000
585.500	38732464.000
586.000	38860020.000
586.500	38802488.000
587.000	38966956.000
587.500	38894588.000
588.000	38883352.000
588.500	38803680.000
589.000	38768136.000
589.500	38847892.000
590.000	38738492.000
590.500	38704580.000
591.000	38806580.000
591.500	38780976.000
592.000	38690212.000
592.500	38751724.000
593.000	38808688.000
593.500	38651972.000
594.000	38727732.000
594.500	38791712.000
595.000	38741620.000
595.500	38849100.000
596.000	38905512.000
596.500	38953148.000
597.000	38884552.000
597.500	38766924.000
598.000	38875308.000
598.500	38845132.000
599.000	38754888.000
599.500	38792908.000
