t (s)	R (ohm)
0.000	42659240.000
0.500	42700000.000
1.000	42661400.000
1.500	42688196.000
2.000	42688620.000
2.500	42763848.000
3.000	42572060.000
3.500	42542376.000
4.000	42423592.000
4.500	42691664.000
5.000	42512760.000
5.500	42511044.000
6.000	42708380.000
6.500	42753724.000
7.000	42680268.000
7.500	42578644.000
8.000	42605300.000
8.500	42586076.000
9.000	42414932.000
9.500	42722068.000
10.000	42536324.000
10.500	42606184.000
11.000	42748952.000
11.500	43002452.000
12.000	42918792.000
12.500	42882404.000
13.000	42869156.000
13.500	42872660.000
14.000	42993096.000
14.500	42781516.000
15.000	42862476.000
15.500	42855760.000
16.000	42660952.000
16.500	42782816.000
17.000	42756316.000
17.500	42660568.000
18.000	42722500.000
18.500	42699568.000
19.000	42688620.000
19.500	42710112.000
20.000	42772236.000
20.500	42673628.000
21.000	42548536.000
21.500	42632484.000
22.000	42718064.000
22.500	42700884.000
23.000	42635944.000
23.500	42598840.000
24.000	42667592.000
24.500	42599144.000
25.000	42616668.000
25.500	42500076.000
26.000	42464892.000
26.500	42411900.000
27.000	42578200.000
27.500	42518876.000
28.000	42326232.000
28.500	42450576.000
29.000	42292128.000
29.500	42548160.000
30.000	42360392.000
30.500	42390260.000
31.000	42339196.000
31.500	41907056.000
32.000	42305964.000
32.500	41874076.000
33.000	41561064.000
33.500	41187520.000
34.000	41007552.000
34.500	41021256.000
35.000	40789020.000
35.500	40634684.000
36.000	40403184.000
36.500	40286136.000
37.000	40272144.000
37.500	40348240.000
38.000	40307880.000
38.500	40232360.000
39.000	40142000.000
39.500	40044344.000
40.000	40045960.000
40.500	40021616.000
41.000	39920532.000
41.500	39831984.000
42.000	39950772.000
42.500	39878628.000
43.000	39823556.000
43.500	39928980.000
44.000	39803452.000
44.500	39741424.000
45.000	39677556.000
45.500	39613504.000
46.000	39634204.000
46.500	39658496.000
47.000	39716632.000
47.500	39636532.000
48.000	39622228.000
48.500	39504600.000
49.000	39558364.000
49.500	39519992.000
50.000	39512872.000
50.500	39501780.000
51.000	39495088.000
51.500	39449364.000
52.000	39391888.000
52.500	39369944.000
53.000	39273224.000
53.500	39277596.000
54.000	39235780.000
54.500	39140916.000
55.000	39219024.000
55.500	39080540.000
56.000	39146308.000
56.500	39203444.000
57.000	39183300.000
57.500	39207044.000
58.000	39091868.000
58.500	39096400.000
59.000	39144872.000
59.500	39182900.000
60.000	39186312.000
60.500	39181732.000
61.000	39011468.000
61.500	38954068.000
62.000	39018380.000
62.500	38896640.000
63.000	39004560.000
63.500	38986000.000
64.000	38984404.000
64.500	38950352.000
65.000	38901540.000
65.500	38887812.000
66.000	38888196.000
66.500	38841536.000
67.000	38771720.000
67.500	38853660.000
68.000	38869360.000
68.500	38757292.000
69.000	38716572.000
69.500	38724156.000
70.000	38746956.000
70.500	38734496.000
71.000	38733712.000
71.500	38728476.000
72.000	38695776.000
72.500	38822300.000
73.000	38770944.000
73.500	38777772.000
74.000	38729252.000
74.500	38744052.000
75.000	38750868.000
75.500	38670168.000
76.000	38796136.000
76.500	38618844.000
77.000	38739736.000
77.500	38715376.000
78.000	38612540.000
78.500	38614120.000
79.000	38742484.000
79.500	38568104.000
80.000	38574856.000
80.500	38515060.000
81.000	38530484.000
81.500	38468496.000
82.000	38550324.000
82.500	38576024.000
83.000	38516608.000
83.500	38477932.000
84.000	38547080.000
84.500	38461788.000
85.000	38453528.000
85.500	38453900.000
86.000	38330552.000
86.500	38422808.000
87.000	38407872.000
87.500	38483100.000
88.000	38503648.000
88.500	38460232.000
89.000	38513496.000
89.500	38320796.000
90.000	38524624.000
90.500	38260244.000
91.000	38328608.000
91.500	38300044.000
92.000	38321580.000
92.500	38449148.000
93.000	38432636.000
93.500	38443236.000
94.000	38330932.000
94.500	38390984.000
95.000	38378416.000
95.500	38360328.000
96.000	38485036.000
96.500	38427488.000
97.000	38358000.000
97.500	38315752.000
98.000	38408656.000
98.500	38363108.000
99.000	38393320.000
99.500	38470436.000
100.000	38442432.000
100.500	38385804.000
101.000	38259444.000
101.500	38273452.000
102.000	38259032.000
102.500	38318788.000
103.000	38264124.000
103.500	38314100.000
104.000	38157504.000
104.500	38218916.000
105.000	38202976.000
105.500	38188604.000
106.000	38142784.000
106.500	38050764.000
107.000	38194436.000
107.500	38266872.000
108.000	38304752.000
108.500	38225928.000
109.000	38216212.000
109.500	38215432.000
110.000	38219312.000
110.500	38053440.000
111.000	38157896.000
111.500	38070040.000
112.000	38097500.000
112.500	38083976.000
113.000	38090520.000
113.500	37944944.000
114.000	38039940.000
114.500	38164496.000
115.000	38213072.000
115.500	38159848.000
116.000	37982208.000
116.500	38070808.000
117.000	38144328.000
117.500	38154788.000
118.000	38145872.000
118.500	38137760.000
119.000	38061956.000
119.500	38140076.000
120.000	38100968.000
120.500	38155580.000
121.000	37979132.000
121.500	37965304.000
122.000	38073532.000
122.500	38131176.000
123.000	38110656.000
123.500	37989540.000
124.000	38068120.000
124.500	38011044.000
125.000	38085136.000
125.500	38022236.000
126.000	38004128.000
126.500	37966068.000
127.000	38019500.000
127.500	37998728.000
128.000	38053428.000
128.500	38608520.000
129.000	38038420.000
129.500	38052676.000
130.000	38146260.000
130.500	38021060.000
131.000	37991048.000
131.500	37960308.000
132.000	38066572.000
132.500	38024548.000
133.000	37965304.000
133.500	37903188.000
134.000	37984144.000
134.500	37969132.000
135.000	38002200.000
135.500	37991012.000
136.000	37990280.000
136.500	37961848.000
137.000	37831356.000
137.500	37899316.000
138.000	37926528.000
138.500	37850424.000
139.000	37837064.000
139.500	37852356.000
140.000	37946468.000
140.500	37829828.000
141.000	37849268.000
141.500	37776116.000
142.000	37658644.000
142.500	37712052.000
143.000	37637504.000
143.500	37599372.000
144.000	37711948.000
144.500	37702520.000
145.000	37726360.000
145.500	37653368.000
146.000	37628044.000
146.500	37599376.000
147.000	37454884.000
147.500	37493100.000
148.000	37472904.000
148.500	37505820.000
149.000	37542220.000
149.500	37520836.000
150.000	37562108.000
150.500	37496504.000
151.000	37425088.000
151.500	37437392.000
152.000	37448660.000
152.500	37559512.000
153.000	37562604.000
153.500	37630692.000
154.000	37638244.000
154.500	37629172.000
155.000	37712016.000
155.500	37690408.000
156.000	37739688.000
156.500	37675692.000
157.000	37724508.000
157.500	37720268.000
158.000	37593756.000
158.500	37395988.000
159.000	37624668.000
159.500	37441948.000
160.000	37522824.000
160.500	37557620.000
161.000	37539148.000
161.500	37529076.000
162.000	37357980.000
162.500	37471736.000
163.000	37480356.000
163.500	37678652.000
164.000	37542240.000
164.500	37555732.000
165.000	37629944.000
165.500	37543732.000
166.000	37526152.000
166.500	37630696.000
167.000	37749516.000
167.500	37758280.000
168.000	37723368.000
168.500	37773088.000
169.000	37442592.000
169.500	37575260.000
170.000	37682044.000
170.500	37715720.000
171.000	37530544.000
171.500	37671008.000
172.000	37590720.000
172.500	37562760.000
173.000	37596340.000
173.500	37548616.000
174.000	37540692.000
174.500	37416500.000
175.000	37520320.000
175.500	37410432.000
176.000	37384768.000
176.500	37385904.000
177.000	37305948.000
177.500	37288220.000
178.000	37401568.000
178.500	37465416.000
179.000	37528716.000
179.500	37433972.000
180.000	37457812.000
180.500	37429164.000
181.000	37384760.000
181.500	37413052.000
182.000	37508100.000
182.500	37400432.000
183.000	37550500.000
183.500	37454912.000
184.000	37563252.000
184.500	37459072.000
185.000	37535068.000
185.500	37415356.000
186.000	37430304.000
186.500	37665348.000
187.000	37728272.000
187.500	37732412.000
188.000	37614096.000
188.500	37452980.000
189.000	37581268.000
189.500	37450692.000
190.000	37610260.000
190.500	37396652.000
191.000	37461228.000
191.500	37581640.000
192.000	37464276.000
192.500	37479636.000
193.000	37483420.000
193.500	37499048.000
194.000	37294120.000
194.500	37319036.000
195.000	37440308.000
195.500	37448920.000
196.000	37510364.000
196.500	37303836.000
197.000	37364796.000
197.500	37334660.000
198.000	37325320.000
198.500	37360112.000
199.000	37300772.000
199.500	37265980.000
200.000	37285184.000
200.500	37278160.000
201.000	37237872.000
201.500	37339444.000
202.000	37275652.000
202.500	37297524.000
203.000	37366928.000
203.500	37299788.000
204.000	37327212.000
204.500	37408624.000
205.000	37277916.000
205.500	37282704.000
206.000	37158712.000
206.500	37329360.000
207.000	37130772.000
207.500	37098400.000
208.000	37148348.000
208.500	37120052.000
209.000	37120960.000
209.500	37155336.000
210.000	37021904.000
210.500	37225740.000
211.000	37090660.000
211.500	37030336.000
212.000	37020372.000
212.500	37095356.000
213.000	37149656.000
213.500	37126268.000
214.000	37150980.000
214.500	36986480.000
215.000	37092144.000
215.500	37156468.000
216.000	37106100.000
216.500	37179920.000
217.000	37117788.000
217.500	37127596.000
218.000	36979952.000
218.500	36899444.000
219.000	36948880.000
219.500	36844376.000
220.000	36797820.000
220.500	36911736.000
221.000	37025092.000
221.500	36978600.000
222.000	36936340.000
222.500	36960480.000
223.000	36881544.000
223.500	36940472.000
224.000	37010840.000
224.500	37025816.000
225.000	37099892.000
225.500	37141336.000
226.000	37068636.000
226.500	37084440.000
227.000	37111172.000
227.500	37044600.000
228.000	36991896.000
228.500	36904312.000
229.000	36976560.000
229.500	37053232.000
230.000	37194672.000
230.500	37119300.000
231.000	37088392.000
231.500	37127392.000
232.000	37120416.000
232.500	37227224.000
233.000	37154192.000
233.500	37251544.000
234.000	37123824.000
234.500	37150228.000
235.000	37141748.000
235.500	37209828.000
236.000	37153820.000
236.500	37041992.000
237.000	37067524.000
237.500	36969264.000
238.000	37102736.000
238.500	37229720.000
239.000	37136468.000
239.500	37116668.000
240.000	37185040.000
240.500	37049304.000
241.000	37035032.000
241.500	37094608.000
242.000	36980316.000
242.500	37073728.000
243.000	37012704.000
243.500	37017388.000
244.000	37083696.000
244.500	37051168.000
245.000	37224972.000
245.500	37145704.000
246.000	36987252.000
246.500	37073160.000
247.000	37076344.000
247.500	37099884.000
248.000	37033904.000
248.500	37113828.000
249.000	36923344.000
249.500	36947200.000
250.000	36825860.000
250.500	36989484.000
251.000	36864460.000
251.500	36863724.000
252.000	36864476.000
252.500	36938436.000
253.000	36884744.000
253.500	36911200.000
254.000	36752120.000
254.500	36784832.000
255.000	36830120.000
255.500	36768288.000
256.000	36837736.000
256.500	36825456.000
257.000	36709140.000
257.500	36863720.000
258.000	36814868.000
258.500	36793200.000
259.000	36820632.000
259.500	36786344.000
260.000	36732368.000
260.500	36665296.000
261.000	36664176.000
261.500	36726272.000
262.000	36709508.000
262.500	36672452.000
263.000	36613524.000
263.500	36613988.000
264.000	36684972.000
264.500	36614264.000
265.000	36698976.000
265.500	36590948.000
266.000	36687680.000
266.500	36489936.000
267.000	36583800.000
267.500	36554876.000
268.000	36560148.000
268.500	35607136.000
269.000	36684616.000
269.500	36786568.000
270.000	36779848.000
270.500	36771752.000
271.000	36763044.000
271.500	36867080.000
272.000	36760832.000
272.500	36682380.000
273.000	36732372.000
273.500	36876368.000
274.000	36847752.000
274.500	36760428.000
275.000	36761180.000
275.500	36809140.000
276.000	36617696.000
276.500	36790572.000
277.000	36676184.000
277.500	36795420.000
278.000	36742896.000
278.500	36673592.000
279.000	36550340.000
279.500	36456988.000
280.000	36767276.000
280.500	36620796.000
281.000	36619576.000
281.500	36671736.000
282.000	36681264.000
282.500	36758584.000
283.000	36683488.000
283.500	36754728.000
284.000	36756340.000
284.500	36597736.000
285.000	36672840.000
285.500	36701680.000
286.000	36611660.000
286.500	36673564.000
287.000	36614268.000
287.500	36690676.000
288.000	36641916.000
288.500	36609428.000
289.000	36601928.000
289.500	36680772.000
290.000	36536456.000
290.500	36598468.000
291.000	36527472.000
291.500	36385044.000
292.000	36434992.000
292.500	36509820.000
293.000	36465212.000
293.500	36587220.000
294.000	36590960.000
294.500	36647116.000
295.000	36694388.000
295.500	36646736.000
296.000	36643388.000
296.500	36641176.000
297.000	36677060.000
297.500	36582324.000
298.000	36573696.000
298.500	36682380.000
299.000	36618572.000
299.500	36744164.000
300.000	36705800.000
300.500	36615852.000
301.000	36620420.000
301.500	36676664.000
302.000	36597372.000
302.500	36561652.000
303.000	36567664.000
303.500	36551076.000
