t (s)	R (ohm)
0.000	39711344.000
0.500	39586048.000
1.000	39565752.000
1.500	39582408.000
2.000	39522276.000
2.500	39407492.000
3.000	39389392.000
3.500	39339260.000
4.000	39423220.000
4.500	39307956.000
5.000	39413496.000
5.500	39309548.000
6.000	39244660.000
6.500	39252480.000
7.000	39356952.000
7.500	39287296.000
8.000	39559836.000
8.500	39385128.000
9.000	39599504.000
9.500	39742104.000
10.000	39723356.000
10.500	39780916.000
11.000	39631292.000
11.500	39663520.000
12.000	39640336.000
12.500	39461420.000
13.000	39479992.000
13.500	38743944.000
14.000	39399240.000
14.500	39154112.000
15.000	39233704.000
15.500	39362788.000
16.000	39289924.000
16.500	39297728.000
17.000	39162088.000
17.500	39012552.000
18.000	39134236.000
18.500	39337648.000
19.000	39025596.000
19.500	39144588.000
20.000	39013152.000
20.500	38865932.000
21.000	39122516.000
21.500	39251676.000
22.000	39343896.000
22.500	39126092.000
23.000	39244308.000
23.500	39225512.000
24.000	39432952.000
24.500	39279716.000
25.000	39364252.000
25.500	39199756.000
26.000	39271912.000
26.500	39249680.000
27.000	39230136.000
27.500	39230512.000
28.000	39156332.000
28.500	39204940.000
29.000	39050704.000
29.500	39057256.000
30.000	39152112.000
30.500	39277912.000
31.000	39323572.000
31.500	39132276.000
32.000	39256288.000
32.500	39249284.000
33.000	39256700.000
33.500	39273884.000
34.000	39262116.000
34.500	39336076.000
35.000	39195572.000
35.500	39348568.000
36.000	39247296.000
36.500	39102452.000
37.000	38886904.000
37.500	39047528.000
38.000	38794472.000
38.500	39149764.000
39.000	38834960.000
39.500	39138428.000
40.000	39025184.000
40.500	38614000.000
41.000	39084424.000
41.500	39297728.000
42.000	39198748.000
42.500	39104832.000
43.000	39234884.000
43.500	39104020.000
44.000	39110992.000
44.500	39057628.000
45.000	39165272.000
45.500	38996356.000
46.000	39170432.000
46.500	39013340.000
47.000	39011748.000
47.500	39069528.000
48.000	38962032.000
48.500	39140384.000
49.000	39151732.000
49.500	39234496.000
50.000	38965600.000
50.500	39058044.000
51.000	38997948.000
51.500	39064976.000
52.000	39065376.000
52.500	38780020.000
53.000	38811684.000
53.500	38894168.000
54.000	38911868.000
54.500	38873584.000
55.000	38991420.000
55.500	39060412.000
56.000	39014932.000
56.500	39092516.000
57.000	39091356.000
57.500	39045372.000
58.000	39029132.000
58.500	38947848.000
59.000	38868292.000
59.500	38849056.000
60.000	38855916.000
60.500	38783152.000
61.000	38980980.000
61.500	38991820.000
62.000	38963224.000
62.500	38950612.000
63.000	38895344.000
63.500	38877688.000
64.000	38763232.000
64.500	38806824.000
65.000	38936420.000
65.500	38874744.000
66.000	38755084.000
66.500	38896552.000
67.000	38761900.000
67.500	38814020.000
68.000	38730716.000
68.500	38653368.000
69.000	39822628.000
69.500	40188432.000
70.000	38823624.000
70.500	38640976.000
71.000	39718932.000
71.500	38926804.000
72.000	38692004.000
72.500	38779616.000
73.000	38858664.000
73.500	38836944.000
74.000	38833788.000
74.500	38706380.000
75.000	38737268.000
75.500	38848664.000
76.000	38758376.000
76.500	38700776.000
77.000	38672928.000
77.500	38649044.000
78.000	38702060.000
78.500	38785908.000
79.000	38929160.000
79.500	38932896.000
80.000	38603624.000
80.500	38693180.000
81.000	38270256.000
81.500	39219304.000
82.000	38661324.000
82.500	38390820.000
83.000	38775172.000
83.500	38729940.000
84.000	38660540.000
84.500	38441972.000
85.000	38623120.000
85.500	38495944.000
86.000	38563592.000
86.500	38696844.000
87.000	38649032.000
87.500	38694456.000
88.000	38796808.000
88.500	38775548.000
89.000	38751660.000
89.500	38699196.000
90.000	38579424.000
90.500	38698784.000
91.000	38756012.000
91.500	38635904.000
92.000	38640308.000
92.500	38699204.000
93.000	38632232.000
93.500	38585016.000
94.000	38572288.000
94.500	38583848.000
95.000	38635508.000
95.500	38520132.000
96.000	38734780.000
96.500	38547360.000
97.000	38480972.000
97.500	38620384.000
98.000	38605684.000
98.500	38627172.000
99.000	38669404.000
99.500	38637064.000
100.000	38737528.000
100.500	38615572.000
101.000	38665368.000
101.500	38543864.000
102.000	38617260.000
102.500	38668108.000
103.000	38746444.000
103.500	38748020.000
104.000	38678920.000
104.500	38695656.000
105.000	38831804.000
105.500	38668620.000
106.000	38564856.000
106.500	39047564.000
107.000	38680120.000
107.500	38638248.000
108.000	38599340.000
108.500	38680912.000
109.000	38631580.000
109.500	38693284.000
110.000	38757572.000
110.500	38770808.000
111.000	38824584.000
111.500	38680504.000
112.000	38609324.000
112.500	38663808.000
113.000	38754816.000
113.500	38641100.000
114.000	38722076.000
114.500	38780020.000
115.000	38739232.000
115.500	38779224.000
116.000	38855884.000
116.500	38828912.000
117.000	38743956.000
117.500	38774368.000
118.000	38656992.000
118.500	38598912.000
119.000	38651412.000
119.500	38773568.000
120.000	38730716.000
120.500	38700372.000
121.000	38683272.000
121.500	38577100.000
122.000	38571112.000
122.500	38637052.000
123.000	38566796.000
123.500	38440400.000
124.000	38462060.000
124.500	38470340.000
125.000	38676056.000
125.500	38639028.000
126.000	38680136.000
126.500	38552136.000
127.000	38788412.000
127.500	38960856.000
128.000	38765584.000
128.500	38625996.000
129.000	38525208.000
129.500	38300332.000
130.000	38408544.000
130.500	38531648.000
131.000	38393936.000
131.500	38437212.000
132.000	38502668.000
132.500	38629920.000
133.000	38611660.000
133.500	38598536.000
134.000	38539460.000
134.500	38447108.000
135.000	38525992.000
135.500	38364572.000
136.000	38441160.000
136.500	38482984.000
137.000	38333536.000
137.500	38444276.000
138.000	38445464.000
138.500	38392780.000
139.000	38348824.000
139.500	38561148.000
140.000	38513300.000
140.500	38636684.000
141.000	38441180.000
141.500	38245672.000
142.000	38297948.000
142.500	38403344.000
143.000	38346896.000
143.500	38253436.000
144.000	38245660.000
144.500	38264016.000
145.000	38278452.000
145.500	38251148.000
146.000	38184972.000
146.500	38276900.000
147.000	38318296.000
147.500	38338648.000
148.000	38480572.000
148.500	38426196.000
149.000	38465960.000
149.500	38374756.000
150.000	38307748.000
150.500	38295240.000
151.000	38382584.000
151.500	38233984.000
152.000	38319448.000
152.500	38314808.000
153.000	38348496.000
153.500	38354724.000
154.000	38217272.000
154.500	38262868.000
155.000	38276520.000
155.500	38360228.000
156.000	38206396.000
156.500	38420704.000
157.000	38306220.000
157.500	37895832.000
158.000	38464028.000
158.500	38769624.000
159.000	38438472.000
159.500	38425444.000
160.000	38321476.000
160.500	38336728.000
161.000	38366516.000
161.500	38264016.000
162.000	38299160.000
162.500	38378660.000
163.000	38342632.000
163.500	38231684.000
164.000	38239476.000
164.500	38174520.000
165.000	38187720.000
165.500	38205968.000
166.000	38160532.000
166.500	38203280.000
167.000	38083888.000
167.500	38255060.000
168.000	38188496.000
168.500	38329684.000
169.000	38220776.000
169.500	38190432.000
170.000	38289020.000
170.500	38324624.000
171.000	38276536.000
171.500	38126416.000
172.000	38122548.000
172.500	38234020.000
173.000	38151224.000
173.500	38202880.000
174.000	38184232.000
174.500	38321480.000
175.000	38228540.000
175.500	38198584.000
176.000	38200140.000
176.500	38177616.000
177.000	38187312.000
177.500	38209112.000
178.000	38083868.000
178.500	38174108.000
179.000	37957924.000
179.500	38052588.000
180.000	38012888.000
180.500	37919204.000
181.000	38012516.000
181.500	37948712.000
182.000	38007116.000
182.500	38013660.000
183.000	38107068.000
183.500	38127968.000
184.000	38149300.000
184.500	38052584.000
185.000	38141152.000
185.500	38151620.000
186.000	38219632.000
186.500	38185792.000
187.000	38166360.000
187.500	38218440.000
188.000	38086184.000
188.500	38019032.000
189.000	38064180.000
189.500	38078836.000
190.000	38105096.000
190.500	38189264.000
191.000	38055280.000
191.500	38074960.000
192.000	37977496.000
192.500	38088100.000
193.000	38093492.000
193.500	37847676.000
194.000	37972156.000
194.500	38027892.000
195.000	38086944.000
195.500	38150444.000
196.000	38024828.000
196.500	38090432.000
197.000	38172184.000
197.500	38017116.000
198.000	37999780.000
198.500	37960592.000
199.000	37995168.000
199.500	38054888.000
200.000	38172156.000
200.500	38227764.000
201.000	38107836.000
201.500	38197804.000
202.000	38219220.000
202.500	38228176.000
203.000	38334000.000
203.500	38416392.000
204.000	38385780.000
204.500	38195092.000
205.000	38293296.000
205.500	38241788.000
206.000	38284328.000
206.500	38258980.000
207.000	38250008.000
207.500	38258184.000
208.000	38216868.000
208.500	38267928.000
209.000	38191972.000
209.500	38133008.000
210.000	38094680.000
210.500	38022112.000
211.000	37962884.000
211.500	38015956.000
212.000	37942952.000
212.500	37988248.000
213.000	38095048.000
213.500	38040224.000
214.000	37961744.000
214.500	38166728.000
215.000	38238280.000
215.500	38187312.000
216.000	38147332.000
216.500	38130672.000
217.000	38167128.000
217.500	38121368.000
218.000	38233640.000
218.500	38219572.000
219.000	38225424.000
219.500	38223916.000
220.000	38165200.000
220.500	38176072.000
221.000	38112464.000
221.500	38138824.000
222.000	38016348.000
222.500	37991712.000
223.000	38052208.000
223.500	37990568.000
224.000	38037908.000
224.500	37950976.000
225.000	37901556.000
225.500	37863700.000
226.000	37916488.000
226.500	38085808.000
227.000	38076140.000
227.500	37973272.000
228.000	37921852.000
228.500	37964044.000
229.000	38025964.000
229.500	38121016.000
230.000	37937944.000
230.500	37858356.000
231.000	37906520.000
231.500	38031764.000
232.000	38014020.000
232.500	38079216.000
233.000	38223540.000
233.500	38180720.000
234.000	38052584.000
234.500	38091968.000
235.000	38089636.000
235.500	38102808.000
236.000	38162076.000
236.500	38205972.000
237.000	38161684.000
237.500	37999784.000
238.000	38107452.000
238.500	38070728.000
239.000	38030584.000
239.500	38036764.000
240.000	38033676.000
240.500	37931796.000
241.000	37886236.000
241.500	37709576.000
242.000	37820608.000
242.500	37905012.000
243.000	37959452.000
243.500	37851468.000
244.000	37921824.000
244.500	37916888.000
245.000	37951744.000
245.500	37800764.000
246.000	37793560.000
246.500	37839604.000
247.000	37876712.000
247.500	38034848.000
248.000	37817544.000
248.500	38027908.000
249.000	37826628.000
249.500	37821724.000
250.000	37792384.000
250.500	37797712.000
251.000	37708112.000
251.500	37618476.000
252.000	37700888.000
252.500	37696692.000
253.000	37606440.000
253.500	37672164.000
254.000	37650588.000
254.500	37591744.000
255.000	37627168.000
255.500	37847584.000
256.000	37779072.000
256.500	37779832.000
257.000	37620756.000
257.500	37731240.000
258.000	37717188.000
258.500	37770684.000
259.000	37815596.000
259.500	37782152.000
260.000	37641132.000
260.500	37626408.000
261.000	37686528.000
261.500	37691040.000
262.000	37648312.000
262.500	37754728.000
263.000	37718620.000
263.500	37750192.000
264.000	37709176.000
264.500	37753204.000
265.000	37627956.000
265.500	37725896.000
266.000	37853732.000
266.500	37768400.000
267.000	37819792.000
267.500	37692964.000
268.000	37840036.000
268.500	37657024.000
269.000	37707340.000
269.500	37708884.000
270.000	37699768.000
270.500	37683848.000
271.000	37595112.000
271.500	37654340.000
272.000	37508004.000
272.500	37546596.000
273.000	37692192.000
273.500	37604544.000
274.000	37557072.000
274.500	37690968.000
275.000	37617712.000
275.500	37721356.000
276.000	37686516.000
276.500	37685356.000
277.000	37779068.000
277.500	37685452.000
278.000	37735820.000
278.500	37718732.000
279.000	37754788.000
279.500	37857604.000
280.000	37827840.000
280.500	38033276.000
281.000	37883952.000
281.500	37830876.000
282.000	37908036.000
282.500	37923756.000
283.000	37962504.000
283.500	37828568.000
284.000	37770304.000
284.500	37801924.000
285.000	37684988.000
285.500	37784752.000
286.000	37793940.000
286.500	37815628.000
287.000	37818288.000
287.500	37840424.000
288.000	38000176.000
288.500	37812604.000
289.000	37918412.000
289.500	37781376.000
290.000	37867124.000
290.500	37795836.000
291.000	37803448.000
291.500	37815620.000
292.000	37817180.000
292.500	37821708.000
293.000	37793516.000
293.500	37849544.000
294.000	37814076.000
294.500	37768788.000
295.000	37604624.000
295.500	37584584.000
296.000	37585344.000
296.500	37692540.000
297.000	37787812.000
297.500	37615884.000
298.000	37623428.000
298.500	37611032.000
299.000	37630588.000
299.500	37764232.000
