t (s)	R (ohm)
0.000	28128930.000
0.500	28638062.000
1.000	28906086.000
1.500	29112192.000
2.000	29338944.000
2.500	29363798.000
3.000	29590076.000
3.500	29733660.000
4.000	29924248.000
4.500	30017260.000
5.000	30054080.000
5.500	30355028.000
6.000	30325806.000
6.500	30458486.000
7.000	30594880.000
7.500	30565560.000
8.000	30636936.000
8.500	30626520.000
9.000	30866254.000
9.500	30841862.000
10.000	30942932.000
10.500	31089250.000
11.000	31185454.000
11.500	31200528.000
12.000	31334398.000
12.500	31380110.000
13.000	31348992.000
13.500	31375780.000
14.000	31428750.000
14.500	31504208.000
15.000	31545062.000
15.500	31548844.000
16.000	31592926.000
16.500	31544742.000
17.000	31719046.000
17.500	31755036.000
18.000	31788234.000
18.500	31778030.000
19.000	31829184.000
19.500	31761728.000
20.000	31929448.000
20.500	31802314.000
21.000	31866698.000
21.500	31863832.000
22.000	31975628.000
22.500	32062816.000
23.000	32047238.000
23.500	32024184.000
24.000	31981124.000
24.500	32034234.000
25.000	32145924.000
25.500	32152452.000
26.000	32184528.000
26.500	32228138.000
27.000	32231102.000
27.500	32268924.000
28.000	32222246.000
28.500	32244572.000
29.000	32332924.000
29.500	32376598.000
