t (s)	R (ohm)
0.000	40856952.000
0.500	40937736.000
1.000	40818880.000
1.500	40769572.000
2.000	40675148.000
2.500	40701656.000
3.000	40753572.000
3.500	40827712.000
4.000	40855928.000
4.500	40672972.000
5.000	40731264.000
5.500	40627852.000
6.000	40805736.000
6.500	40769984.000
7.000	40629104.000
7.500	40627864.000
8.000	40642512.000
8.500	40789852.000
9.000	40716652.000
9.500	40599096.000
10.000	40764616.000
10.500	40737588.000
11.000	40757420.000
11.500	40784340.000
12.000	40586944.000
12.500	40643740.000
13.000	40602828.000
13.500	40712132.000
14.000	40680236.000
14.500	40579528.000
15.000	40585696.000
15.500	40627852.000
16.000	40418392.000
16.500	40368416.000
17.000	40465176.000
17.500	40427540.000
18.000	40372984.000
18.500	40399400.000
19.000	40251224.000
19.500	40223764.000
20.000	40314080.000
20.500	40295168.000
21.000	40238532.000
21.500	40234004.000
22.000	40250824.000
22.500	40362696.000
23.000	40399400.000
23.500	40321512.000
24.000	40257380.000
24.500	40334616.000
25.000	40343248.000
25.500	40173848.000
26.000	40158728.000
26.500	40252428.000
27.000	40091504.000
27.500	40062624.000
28.000	40015552.000
28.500	39999360.000
29.000	40048424.000
29.500	40080512.000
30.000	39932664.000
30.500	39914904.000
31.000	40002180.000
31.500	39948824.000
32.000	40067488.000
32.500	39977916.000
33.000	40000980.000
33.500	39924976.000
34.000	39902392.000
34.500	39881464.000
35.000	40015552.000
35.500	39846460.000
36.000	39959720.000
36.500	40035856.000
37.000	40038684.000
37.500	39971436.000
38.000	39958508.000
38.500	39971844.000
39.000	39864156.000
39.500	39935096.000
40.000	39945164.000
40.500	39839220.000
41.000	39789888.000
41.500	39870176.000
42.000	39814740.000
42.500	39891920.000
43.000	39792268.000
43.500	39904008.000
44.000	39772688.000
44.500	39837204.000
45.000	39739908.000
45.500	39751844.000
46.000	39677964.000
46.500	39696744.000
47.000	39665264.000
47.500	39787880.000
48.000	39779104.000
48.500	39741048.000
49.000	39927012.000
49.500	39884664.000
50.000	39858948.000
50.500	39832016.000
51.000	39783472.000
51.500	39753456.000
52.000	39854900.000
52.500	39864968.000
53.000	39909656.000
53.500	39932224.000
54.000	39727864.000
54.500	39767468.000
55.000	39649724.000
55.500	39670008.000
56.000	39744668.000
56.500	39762688.000
57.000	39830436.000
57.500	39936284.000
58.000	39925000.000
58.500	39846840.000
59.000	39841232.000
59.500	39771892.000
60.000	39813888.000
60.500	39774288.000
61.000	39557268.000
61.500	39629100.000
62.000	39610784.000
62.500	39561592.000
63.000	39642192.000
63.500	39606364.000
64.000	39560392.000
64.500	39568712.000
65.000	39660836.000
65.500	39749836.000
66.000	39741020.000
66.500	39749824.000
67.000	39749032.000
67.500	39786220.000
68.000	39750252.000
68.500	39599636.000
69.000	39615508.000
69.500	39433232.000
70.000	39722200.000
70.500	39711876.000
71.000	39597632.000
71.500	39696332.000
72.000	39614300.000
72.500	39659716.000
73.000	39610404.000
73.500	39482920.000
74.000	39616336.000
74.500	39558792.000
75.000	39610304.000
75.500	39645308.000
76.000	39509704.000
76.500	39430048.000
77.000	39368368.000
77.500	39415900.000
78.000	39539052.000
78.500	39512912.000
79.000	39611896.000
79.500	39583376.000
80.000	39615936.000
80.500	39482132.000
81.000	39574220.000
81.500	39432040.000
82.000	39487212.000
82.500	39513704.000
83.000	39523208.000
83.500	39492004.000
84.000	39513308.000
84.500	39580244.000
85.000	39467144.000
85.500	39456068.000
86.000	39458844.000
86.500	39388848.000
87.000	39557952.000
87.500	39268604.000
88.000	39274420.000
88.500	39226848.000
89.000	39219052.000
89.500	39296272.000
90.000	39241624.000
90.500	39083544.000
91.000	39127016.000
91.500	39252208.000
92.000	39144116.000
92.500	39382844.000
93.000	39320944.000
93.500	39356252.000
94.000	39336596.000
94.500	39446176.000
95.000	39342172.000
95.500	39443372.000
96.000	39284220.000
96.500	39176348.000
97.000	39353088.000
97.500	39277608.000
98.000	39287652.000
98.500	39171616.000
99.000	39295092.000
99.500	39182140.000
100.000	39131376.000
100.500	39261212.000
101.000	39216424.000
101.500	39191892.000
102.000	39290848.000
102.500	39335800.000
103.000	39151460.000
103.500	39303696.000
104.000	39424136.000
104.500	39267012.000
105.000	39265440.000
105.500	39207052.000
106.000	39340988.000
106.500	39241396.000
107.000	39279208.000
107.500	39258804.000
108.000	39230436.000
108.500	39269424.000
109.000	39315912.000
109.500	39074444.000
110.000	39189936.000
110.500	39251816.000
111.000	39238432.000
111.500	39154868.000
112.000	39144524.000
112.500	40228284.000
113.000	40261500.000
113.500	40406472.000
114.000	40375876.000
114.500	40422168.000
115.000	40397796.000
115.500	40681500.000
116.000	40586648.000
116.500	40571228.000
117.000	40630460.000
117.500	40635816.000
118.000	40582048.000
118.500	40531248.000
119.000	40658020.000
119.500	40633744.000
120.000	40701140.000
120.500	40629216.000
121.000	40665160.000
121.500	43968936.000
122.000	43707552.000
122.500	43932472.000
123.000	43900556.000
123.500	44412508.000
124.000	44513512.000
124.500	44518036.000
125.000	44831860.000
125.500	44959368.000
126.000	44950960.000
126.500	45191368.000
127.000	45215748.000
127.500	45505180.000
128.000	45674916.000
128.500	45674932.000
129.000	45731544.000
129.500	45671792.000
130.000	45946144.000
130.500	46043944.000
131.000	46405572.000
131.500	46614680.000
132.000	46617540.000
132.500	46783156.000
133.000	46787436.000
133.500	47070160.000
134.000	47052048.000
134.500	47086672.000
135.000	47154104.000
135.500	47446204.000
136.000	47683880.000
136.500	47612464.000
137.000	47795864.000
137.500	47781464.000
138.000	47921540.000
138.500	47884240.000
139.000	47931688.000
139.500	48373384.000
140.000	48151276.000
140.500	48352156.000
141.000	48507972.000
141.500	48708396.000
142.000	48929520.000
142.500	49002348.000
143.000	49502868.000
143.500	49021232.000
144.000	49217696.000
144.500	49439436.000
145.000	49563968.000
145.500	49492488.000
146.000	49877412.000
146.500	49998624.000
147.000	50083320.000
147.500	50398208.000
148.000	50656720.000
148.500	50711348.000
149.000	50716636.000
149.500	50745784.000
150.000	50845136.000
150.500	51036312.000
151.000	51026252.000
151.500	51314256.000
152.000	51279476.000
152.500	51405824.000
153.000	51586452.000
153.500	51666348.000
154.000	51874104.000
154.500	52019124.000
155.000	52063964.000
155.500	52112560.000
156.000	52342600.000
156.500	52655980.000
157.000	52891988.000
157.500	53252784.000
158.000	53093192.000
158.500	53141420.000
159.000	53225160.000
159.500	53329552.000
160.000	53830076.000
160.500	53808964.000
161.000	53734132.000
161.500	53887288.000
162.000	53767196.000
162.500	54222524.000
163.000	54028624.000
163.500	54237412.000
164.000	54057096.000
164.500	54209844.000
165.000	54462820.000
165.500	54325880.000
166.000	54400624.000
166.500	54950924.000
167.000	54835252.000
167.500	55030520.000
168.000	54955656.000
168.500	54794092.000
169.000	55171700.000
169.500	55441104.000
170.000	55346796.000
170.500	55646940.000
171.000	55565352.000
171.500	55451052.000
172.000	55548976.000
172.500	55372796.000
173.000	55783904.000
173.500	56070588.000
174.000	56324144.000
174.500	56195388.000
175.000	56075732.000
175.500	56269704.000
176.000	56596212.000
176.500	56633852.000
177.000	56608952.000
177.500	56512936.000
178.000	56629216.000
178.500	56719348.000
179.000	56629808.000
179.500	56788028.000
180.000	56927572.000
180.500	57072128.000
181.000	56957604.000
181.500	56939384.000
182.000	57103988.000
182.500	57403896.000
183.000	57021544.000
183.500	57109180.000
184.000	56902540.000
184.500	57240996.000
185.000	57336044.000
185.500	57385472.000
186.000	57405060.000
186.500	57604180.000
187.000	57826348.000
187.500	57789004.000
188.000	57913480.000
188.500	58061372.000
189.000	58180508.000
189.500	58212400.000
190.000	58232524.000
190.500	58146832.000
191.000	58403500.000
191.500	58339816.000
192.000	58579656.000
192.500	58301300.000
193.000	58215364.000
193.500	58268100.000
194.000	58263964.000
194.500	58198296.000
195.000	58691896.000
195.500	58444620.000
196.000	58453044.000
196.500	58510312.000
197.000	58679368.000
197.500	58860796.000
198.000	59000808.000
198.500	59032460.000
199.000	59020256.000
199.500	59359612.000
200.000	59034916.000
200.500	58991300.000
201.000	59408440.000
201.500	59127456.000
202.000	59431616.000
202.500	59319772.000
203.000	59465048.000
203.500	59222956.000
204.000	59325168.000
204.500	59017224.000
205.000	59475616.000
205.500	59480488.000
206.000	59288352.000
206.500	59447104.000
207.000	59380460.000
207.500	59669188.000
208.000	59699824.000
208.500	59770256.000
209.000	59663760.000
209.500	59644556.000
210.000	59860208.000
210.500	59842684.000
211.000	59907384.000
211.500	59694356.000
212.000	59782924.000
212.500	59854164.000
213.000	60194020.000
213.500	60439000.000
214.000	60134216.000
214.500	60193416.000
215.000	60343612.000
215.500	60551992.000
216.000	60353428.000
216.500	60317848.000
217.000	60467344.000
217.500	60254052.000
218.000	60403260.000
218.500	60494020.000
219.000	60866760.000
219.500	60534720.000
220.000	60164120.000
220.500	60232608.000
221.000	60086660.000
221.500	60016120.000
222.000	59749184.000
222.500	60013612.000
223.000	60183688.000
223.500	60167184.000
224.000	60114688.000
224.500	60128736.000
225.000	60296364.000
225.500	60723896.000
226.000	60317240.000
226.500	60259564.000
227.000	60493940.000
227.500	60498224.000
228.000	60661776.000
228.500	60575552.000
229.000	60216100.000
229.500	60533528.000
230.000	60586792.000
230.500	60732108.000
231.000	60600408.000
231.500	44563256.000
232.000	44462500.000
232.500	44198348.000
233.000	44170500.000
233.500	43754204.000
234.000	43840236.000
234.500	43600076.000
235.000	43514084.000
235.500	43550236.000
236.000	43476208.000
236.500	43409328.000
237.000	43258528.000
237.500	43305944.000
238.000	43333128.000
238.500	43273952.000
239.000	43185532.000
239.500	43277448.000
240.000	43075104.000
240.500	43168556.000
241.000	43022492.000
241.500	41074752.000
242.000	40958424.000
242.500	40784324.000
243.000	40601576.000
243.500	40417988.000
244.000	40376676.000
244.500	40256972.000
245.000	40065088.000
245.500	40025312.000
246.000	40204512.000
246.500	40069144.000
247.000	39769472.000
247.500	39777892.000
248.000	39743108.000
248.500	39793096.000
249.000	39551660.000
249.500	39592900.000
250.000	39536232.000
250.500	39473840.000
251.000	39408852.000
251.500	39304908.000
252.000	39532224.000
252.500	39456068.000
253.000	39564712.000
253.500	39437520.000
254.000	39532232.000
254.500	39439908.000
255.000	39290868.000
255.500	39346836.000
256.000	39237424.000
256.500	39219456.000
257.000	39257240.000
257.500	39174212.000
258.000	39168824.000
258.500	39193728.000
259.000	39083172.000
259.500	39114508.000
260.000	38906880.000
260.500	38902756.000
261.000	38893516.000
261.500	39044324.000
262.000	39107144.000
262.500	38912776.000
263.000	38971428.000
263.500	38872924.000
264.000	38918084.000
264.500	38780536.000
265.000	38833908.000
265.500	38933432.000
266.000	38930248.000
266.500	38974396.000
267.000	38829996.000
267.500	38776248.000
268.000	38817492.000
268.500	38916508.000
269.000	38893132.000
269.500	38944292.000
270.000	38964532.000
270.500	38967468.000
271.000	38923776.000
271.500	38813008.000
272.000	38811032.000
272.500	38790140.000
273.000	38765748.000
273.500	38810640.000
274.000	38729692.000
274.500	38674648.000
275.000	38742516.000
275.500	38635256.000
276.000	38591136.000
276.500	38609352.000
277.000	38657548.000
277.500	38523012.000
278.000	38188252.000
278.500	38696552.000
279.000	38338028.000
279.500	38502828.000
280.000	38453968.000
280.500	38432652.000
281.000	38403928.000
281.500	38401608.000
282.000	38277832.000
282.500	38338820.000
283.000	38333308.000
283.500	38446064.000
284.000	38977952.000
284.500	39373028.000
285.000	37914700.000
285.500	38269252.000
286.000	38368620.000
286.500	38409868.000
287.000	38554684.000
287.500	38362328.000
288.000	39179392.000
288.500	39827968.000
289.000	38433456.000
289.500	38353704.000
290.000	38375664.000
290.500	38125788.000
291.000	38159904.000
291.500	38141664.000
292.000	38357620.000
292.500	38238812.000
293.000	38213896.000
293.500	38354076.000
294.000	38355252.000
294.500	38163372.000
295.000	38363480.000
295.500	38242704.000
296.000	38396092.000
296.500	38558552.000
297.000	38390572.000
297.500	38465340.000
298.000	38372096.000
298.500	38479460.000
299.000	38427916.000
299.500	38492504.000
300.000	38448716.000
300.500	38473188.000
301.000	38395652.000
301.500	38489336.000
302.000	38274288.000
302.500	38320376.000
303.000	38253596.000
303.500	38386992.000
304.000	38443568.000
304.500	38529248.000
305.000	38448328.000
305.500	38366192.000
306.000	38407840.000
306.500	38288720.000
307.000	38378764.000
307.500	38273900.000
308.000	38327828.000
308.500	38337612.000
309.000	38249340.000
309.500	38272724.000
310.000	38144352.000
310.500	38214268.000
311.000	38211540.000
311.500	38066996.000
312.000	38138952.000
312.500	38044244.000
313.000	38175040.000
313.500	38100996.000
314.000	38100236.000
314.500	38064300.000
315.000	38104512.000
315.500	38031904.000
316.000	38128880.000
316.500	38011476.000
317.000	38037300.000
317.500	38123864.000
318.000	38045012.000
318.500	38029952.000
319.000	38066612.000
319.500	38096752.000
320.000	38065056.000
320.500	38118060.000
321.000	38227132.000
321.500	38011880.000
322.000	38046544.000
322.500	38057344.000
323.000	37952280.000
323.500	38007252.000
324.000	38035360.000
324.500	38022276.000
325.000	37989540.000
325.500	38018816.000
326.000	38041516.000
326.500	38036140.000
327.000	38059252.000
327.500	37776576.000
328.000	37842484.000
328.500	37786868.000
329.000	37762180.000
329.500	37773892.000
330.000	37670448.000
330.500	37715500.000
331.000	37811196.000
331.500	37748464.000
332.000	37835992.000
332.500	37903228.000
333.000	37803944.000
333.500	37778496.000
334.000	37801284.000
334.500	37906280.000
335.000	37782664.000
335.500	37861148.000
336.000	37832524.000
336.500	37767452.000
337.000	37732120.000
337.500	37817296.000
338.000	37723032.000
338.500	37794836.000
339.000	37845524.000
339.500	37868816.000
340.000	37781916.000
340.500	37765164.000
341.000	37757956.000
341.500	37599448.000
342.000	37743876.000
342.500	37679468.000
343.000	37789528.000
343.500	37767828.000
344.000	37879104.000
344.500	37876480.000
345.000	37847436.000
345.500	37873384.000
346.000	37835620.000
346.500	37913164.000
347.000	37900564.000
347.500	37862696.000
348.000	38016096.000
348.500	37790652.000
349.000	37806652.000
349.500	37818064.000
350.000	37823380.000
350.500	37808140.000
351.000	37769344.000
351.500	38941496.000
352.000	38841944.000
352.500	38749732.000
353.000	52154932.000
353.500	38779224.000
354.000	38847472.000
354.500	38742528.000
355.000	38936196.000
355.500	38903160.000
356.000	38783304.000
356.500	38938712.000
357.000	38892172.000
357.500	38905904.000
358.000	38811852.000
358.500	38950756.000
359.000	38909468.000
359.500	38929308.000
360.000	38822212.000
360.500	38875296.000
361.000	42223256.000
361.500	42433604.000
362.000	42879392.000
362.500	43114696.000
363.000	43162672.000
363.500	43541980.000
364.000	43992964.000
364.500	44082660.000
365.000	44218628.000
365.500	44473044.000
366.000	45145956.000
366.500	45046648.000
367.000	45387844.000
367.500	45442360.000
368.000	45568624.000
368.500	45961468.000
369.000	46170296.000
369.500	46279420.000
370.000	46571212.000
370.500	46780772.000
371.000	46945688.000
371.500	46954956.000
372.000	47081900.000
372.500	47167544.000
373.000	47267692.000
373.500	47579016.000
374.000	47675712.000
374.500	47950592.000
375.000	48018576.000
375.500	48035632.000
376.000	48384736.000
376.500	48608032.000
377.000	48371896.000
377.500	48610024.000
378.000	49032900.000
378.500	49129496.000
379.000	49486484.000
379.500	49491364.000
380.000	49748256.000
380.500	49898572.000
381.000	50273052.000
381.500	50383344.000
382.000	50589276.000
382.500	50576848.000
383.000	50847196.000
383.500	50609952.000
384.000	51102856.000
384.500	51157364.000
385.000	51288620.000
385.500	51397504.000
386.000	51593684.000
386.500	51877208.000
387.000	51944384.000
387.500	52016500.000
388.000	52211128.000
388.500	52487560.000
389.000	52614980.000
389.500	52798340.000
390.000	52940976.000
390.500	53198112.000
391.000	53027296.000
391.500	53250616.000
392.000	53571068.000
392.500	53619608.000
393.000	53637432.000
393.500	53980456.000
394.000	53676280.000
394.500	54022060.000
395.000	54130636.000
395.500	54012768.000
396.000	54142180.000
396.500	54392888.000
397.000	54511344.000
397.500	54977900.000
398.000	54904828.000
398.500	54861316.000
399.000	55256420.000
399.500	55236764.000
400.000	55839020.000
400.500	55844128.000
401.000	55626796.000
401.500	55719228.000
402.000	56118928.000
402.500	55780472.000
403.000	55892124.000
403.500	56145740.000
404.000	56212508.000
404.500	56533124.000
405.000	56730228.000
405.500	56615296.000
406.000	56885512.000
406.500	56577072.000
407.000	56581716.000
407.500	56917720.000
408.000	57038648.000
408.500	57084008.000
409.000	56744820.000
409.500	57084568.000
410.000	57052212.000
410.500	57104576.000
411.000	56987536.000
411.500	57168932.000
412.000	57169536.000
412.500	57149468.000
413.000	56778012.000
413.500	57121104.000
414.000	57120508.000
414.500	57385440.000
415.000	57321184.000
415.500	57776124.000
416.000	57275344.000
416.500	57336608.000
417.000	57488584.000
417.500	57622136.000
418.000	57404456.000
418.500	57659908.000
419.000	57608252.000
419.500	57858432.000
420.000	58025468.000
420.500	58027844.000
421.000	58808788.000
421.500	58184028.000
422.000	58298964.000
422.500	58494168.000
423.000	58236708.000
423.500	58406524.000
424.000	58612096.000
424.500	58517536.000
425.000	58491224.000
425.500	58663096.000
426.000	58928612.000
426.500	59037248.000
427.000	59035456.000
427.500	59032492.000
428.000	59089056.000
428.500	59276564.000
429.000	59262748.000
429.500	59192316.000
430.000	59586984.000
430.500	59388668.000
431.000	59604328.000
431.500	59282932.000
432.000	59566592.000
432.500	59533696.000
433.000	59509124.000
433.500	59419012.000
434.000	59510348.000
434.500	59361240.000
435.000	59721436.000
435.500	59461396.000
436.000	59724416.000
436.500	59802216.000
437.000	59851776.000
437.500	60126868.000
438.000	59874156.000
438.500	60003872.000
439.000	60438404.000
439.500	60281616.000
440.000	60187916.000
440.500	60300624.000
441.000	60170236.000
441.500	60595352.000
442.000	60609652.000
442.500	60649308.000
443.000	60628304.000
443.500	60661188.000
444.000	60439668.000
444.500	60771332.000
445.000	60756304.000
445.500	61262008.000
446.000	60903724.000
446.500	60997152.000
447.000	60868012.000
447.500	61097052.000
448.000	61114112.000
448.500	61133676.000
449.000	61335672.000
449.500	61549068.000
450.000	61451380.000
450.500	61609728.000
451.000	61725872.000
451.500	61432288.000
452.000	61264528.000
452.500	61291592.000
453.000	61379352.000
453.500	61567588.000
454.000	61371260.000
454.500	61156624.000
455.000	61373816.000
455.500	61314736.000
456.000	61376268.000
456.500	61373124.000
457.000	61330060.000
457.500	61292004.000
458.000	61773752.000
458.500	61750708.000
459.000	61819340.000
459.500	61661212.000
460.000	62006512.000
460.500	61465520.000
461.000	61623968.000
461.500	61590532.000
462.000	61775648.000
462.500	61480352.000
463.000	61563904.000
463.500	61773796.000
464.000	61972000.000
464.500	62108416.000
465.000	61972024.000
465.500	62184724.000
466.000	61878084.000
466.500	61892448.000
467.000	61994596.000
467.500	61326604.000
468.000	61605344.000
468.500	61875504.000
469.000	61935660.000
469.500	61951324.000
470.000	62088904.000
470.500	62047388.000
471.000	62068716.000
471.500	43832772.000
472.000	43669772.000
472.500	43370744.000
473.000	43370316.000
473.500	42937916.000
474.000	42880204.000
474.500	42887628.000
475.000	42854520.000
475.500	42854920.000
476.000	42716776.000
476.500	42551128.000
477.000	42640396.000
477.500	42503200.000
478.000	42570336.000
478.500	42361672.000
479.000	42411856.000
479.500	42439636.000
480.000	42382856.000
480.500	42362504.000
481.000	40247096.000
481.500	40111036.000
482.000	39853276.000
482.500	39482920.000
483.000	39514908.000
483.500	39376748.000
484.000	39314464.000
484.500	39283184.000
485.000	39152660.000
485.500	39032436.000
486.000	39013264.000
486.500	38892144.000
487.000	38762424.000
487.500	38729664.000
488.000	38748764.000
488.500	38717628.000
489.000	38663032.000
489.500	38663412.000
490.000	38546364.000
490.500	38343908.000
491.000	38352136.000
491.500	38220540.000
492.000	38178156.000
492.500	38353336.000
493.000	38359964.000
493.500	38261064.000
494.000	38331748.000
494.500	38277020.000
495.000	38284844.000
495.500	38309852.000
496.000	38231820.000
496.500	38026880.000
497.000	38121124.000
497.500	38154084.000
498.000	38071232.000
498.500	37911660.000
499.000	38064272.000
499.500	38135844.000
500.000	38097908.000
500.500	37986856.000
501.000	37931948.000
501.500	37850844.000
502.000	37984948.000
502.500	37956504.000
503.000	37792144.000
503.500	37849696.000
504.000	37818792.000
504.500	37756036.000
505.000	37857724.000
505.500	37704816.000
506.000	37741604.000
506.500	37782232.000
507.000	37847000.000
507.500	37760164.000
508.000	37678716.000
508.500	37642420.000
509.000	37729080.000
509.500	37644708.000
510.000	37682128.000
510.500	37700648.000
511.000	37621708.000
511.500	37588456.000
512.000	37669220.000
512.500	37487152.000
513.000	37623576.000
513.500	37664732.000
514.000	37694228.000
514.500	37418416.000
515.000	37437416.000
515.500	37451628.000
516.000	37465840.000
516.500	37426276.000
517.000	37481560.000
517.500	37544924.000
518.000	37622056.000
518.500	37508892.000
519.000	37586636.000
519.500	37588160.000
520.000	37414996.000
520.500	37333940.000
521.000	37303856.000
521.500	37439316.000
522.000	37448316.000
522.500	37425904.000
523.000	37451984.000
523.500	37361428.000
524.000	37460992.000
524.500	37554320.000
525.000	37404632.000
525.500	37444628.000
526.000	37455680.000
526.500	37360296.000
527.000	37362952.000
527.500	37364844.000
528.000	37297164.000
528.500	37262776.000
529.000	37317200.000
529.500	37401208.000
530.000	37194864.000
530.500	37228016.000
531.000	37234668.000
531.500	37303856.000
532.000	37322712.000
532.500	37297548.000
533.000	37319088.000
533.500	37290900.000
534.000	37413236.000
534.500	37258020.000
535.000	37262020.000
535.500	37345784.000
536.000	37181640.000
536.500	37326144.000
537.000	37325008.000
537.500	37240184.000
538.000	37317584.000
538.500	37217640.000
539.000	37414640.000
539.500	37338740.000
540.000	37313176.000
540.500	37309384.000
541.000	37315296.000
541.500	37297576.000
542.000	37176364.000
542.500	37139516.000
543.000	37289016.000
543.500	37237932.000
544.000	37233928.000
544.500	37168980.000
545.000	37148008.000
545.500	37182604.000
546.000	37233932.000
546.500	37291520.000
547.000	37262996.000
547.500	37239816.000
548.000	37313180.000
548.500	37236192.000
549.000	37303848.000
549.500	37205504.000
550.000	37230524.000
550.500	37341984.000
551.000	37202868.000
551.500	37168232.000
552.000	37208360.000
552.500	37247196.000
553.000	37247216.000
553.500	37300436.000
554.000	37226144.000
554.500	37258984.000
555.000	37167460.000
555.500	37229036.000
556.000	37198116.000
556.500	37160860.000
557.000	37240168.000
557.500	37306716.000
558.000	37181832.000
558.500	37182976.000
559.000	37088252.000
559.500	37094096.000
560.000	37001332.000
560.500	37073956.000
561.000	37082792.000
561.500	37055552.000
562.000	37131412.000
562.500	37136684.000
563.000	37253100.000
563.500	37163884.000
564.000	36942228.000
564.500	37164464.000
565.000	37165976.000
565.500	37101056.000
566.000	37212516.000
566.500	37156500.000
567.000	37077532.000
567.500	37115004.000
568.000	37165968.000
568.500	37091092.000
569.000	37036944.000
569.500	37053472.000
570.000	37019496.000
570.500	37132924.000
571.000	37119344.000
571.500	37246852.000
572.000	37269424.000
572.500	37161980.000
573.000	37084500.000
573.500	37151028.000
574.000	37248936.000
574.500	37336828.000
575.000	37216864.000
575.500	37094844.000
576.000	37079776.000
576.500	37086004.000
577.000	37135180.000
577.500	37223864.000
578.000	37063972.000
578.500	37047464.000
579.000	36946504.000
579.500	36956420.000
580.000	37003004.000
580.500	36843900.000
581.000	36950788.000
581.500	36965756.000
582.000	36966504.000
582.500	36965012.000
583.000	36835168.000
583.500	36859292.000
584.000	36923548.000
584.500	36862640.000
585.000	36902476.000
585.500	36838664.000
586.000	36949308.000
586.500	36858948.000
587.000	36978488.000
587.500	36873432.000
588.000	36858384.000
588.500	36866544.000
589.000	36893552.000
589.500	36818664.000
590.000	36921136.000
590.500	36833132.000
591.000	36872888.000
591.500	36804944.000
592.000	36925036.000
592.500	36855396.000
593.000	36851164.000
593.500	36824916.000
594.000	36791384.000
594.500	36850028.000
595.000	36786000.000
595.500	36706228.000
596.000	36710796.000
596.500	36656284.000
597.000	36688004.000
597.500	36669916.000
598.000	36740724.000
598.500	36781772.000
599.000	36682316.000
599.500	36774912.000
