t (s)	R (ohm)
0.000	20131984.000
0.500	52237304.000
1.000	51664596.000
1.500	50976072.000
2.000	50479152.000
2.500	49912868.000
3.000	49290692.000
3.500	48740940.000
4.000	48568088.000
4.500	48282708.000
5.000	47906600.000
5.500	47758472.000
6.000	47322780.000
6.500	46916620.000
7.000	46577704.000
7.500	46335520.000
8.000	46166484.000
8.500	46002912.000
9.000	45790608.000
9.500	45489064.000
10.000	45507736.000
10.500	45430316.000
11.000	45047964.000
11.500	44831480.000
12.000	44718940.000
12.500	44488732.000
13.000	44470492.000
13.500	44259952.000
14.000	44200988.000
14.500	44000056.000
15.000	43891216.000
15.500	43781560.000
16.000	43697544.000
16.500	43579656.000
17.000	43360152.000
17.500	43150040.000
18.000	43189112.000
18.500	43389552.000
19.000	43103860.000
19.500	43141520.000
20.000	43035500.000
20.500	42974796.000
21.000	42885620.000
21.500	42909900.000
22.000	42767988.000
22.500	42794480.000
23.000	42786516.000
23.500	42674728.000
24.000	42603700.000
24.500	42619500.000
25.000	42600260.000
25.500	42668104.000
26.000	42647964.000
26.500	42652856.000
27.000	42683072.000
27.500	42466800.000
28.000	42374008.000
28.500	42270868.000
29.000	42272136.000
29.500	42235540.000
30.000	42164776.000
30.500	42269996.000
31.000	42072808.000
31.500	41950720.000
32.000	41966420.000
32.500	41954940.000
33.000	41744740.000
33.500	41890556.000
34.000	41867768.000
34.500	41825120.000
35.000	41903264.000
35.500	41940948.000
36.000	41789312.000
36.500	41684356.000
37.000	41870260.000
37.500	41719136.000
38.000	41779612.000
38.500	41846604.000
39.000	41883808.000
39.500	41815832.000
40.000	41875332.000
40.500	41717876.000
41.000	41543280.000
41.500	41609480.000
42.000	41629980.000
42.500	41593224.000
43.000	41661264.000
43.500	41550744.000
44.000	41554868.000
44.500	41512896.000
45.000	41458920.000
45.500	41386624.000
46.000	41350736.000
46.500	41458072.000
47.000	41391108.000
47.500	41340812.000
48.000	41340408.000
48.500	41238956.000
49.000	41290244.000
49.500	41349060.000
50.000	41298868.000
50.500	41275328.000
51.000	41235588.000
51.500	41290240.000
52.000	41341660.000
52.500	41230740.000
53.000	41271304.000
53.500	41307928.000
54.000	41243364.000
54.500	41330948.000
55.000	41338292.000
55.500	41311116.000
56.000	41424984.000
56.500	41427076.000
57.000	41352404.000
57.500	41346540.000
58.000	41416700.000
58.500	41342068.000
59.000	41290248.000
59.500	41337472.000
60.000	41432000.000
60.500	41414192.000
61.000	41222152.000
61.500	41378656.000
62.000	41302876.000
62.500	41247560.000
63.000	41249224.000
63.500	41241460.000
64.000	41305804.000
64.500	41103376.000
65.000	41053356.000
65.500	41001424.000
66.000	41065628.000
66.500	41003916.000
67.000	41050872.000
67.500	40928708.000
68.000	40875444.000
68.500	40909276.000
69.000	40897324.000
69.500	40924560.000
70.000	40992488.000
70.500	40889872.000
71.000	40898768.000
71.500	40865340.000
72.000	40916092.000
72.500	40923744.000
73.000	40902052.000
73.500	41023612.000
74.000	40971568.000
74.500	41035892.000
75.000	40923744.000
75.500	41019260.000
76.000	40993768.000
76.500	41014264.000
77.000	41039804.000
77.500	41000588.000
78.000	40864496.000
78.500	40915268.000
79.000	41007412.000
79.500	40997264.000
80.000	41025288.000
80.500	40966148.000
81.000	40876268.000
81.500	40830704.000
82.000	40863660.000
82.500	40952072.000
83.000	40939024.000
83.500	40979416.000
84.000	40862008.000
84.500	41029640.000
85.000	40943356.000
85.500	40914432.000
86.000	40872952.000
86.500	40790404.000
87.000	40778488.000
87.500	40945856.000
88.000	40848428.000
88.500	40807492.000
89.000	40815916.000
89.500	40874164.000
90.000	40751624.000
90.500	40744876.000
91.000	40895440.000
91.500	40928492.000
92.000	40835424.000
92.500	40851904.000
93.000	40831136.000
93.500	40374328.000
94.000	40822276.000
94.500	40716368.000
95.000	40702488.000
95.500	40697500.000
96.000	40640052.000
96.500	40602088.000
97.000	40537516.000
97.500	40520900.000
98.000	40550868.000
98.500	40526756.000
99.000	40476124.000
99.500	40610452.000
100.000	40569992.000
100.500	40469060.000
101.000	40610056.000
101.500	40517208.000
102.000	40461192.000
102.500	40433496.000
103.000	40594188.000
103.500	40519676.000
104.000	40450864.000
104.500	40504292.000
105.000	40578832.000
105.500	40533008.000
106.000	40508484.000
106.500	40634680.000
107.000	40501812.000
107.500	40493936.000
108.000	40425208.000
108.500	40400400.000
109.000	40533408.000
109.500	40666872.000
110.000	40550856.000
110.500	40552124.000
111.000	40432568.000
111.500	40642528.000
112.000	40506740.000
112.500	40499256.000
113.000	40600872.000
113.500	40562084.000
114.000	40543784.000
114.500	40626308.000
115.000	40687768.000
115.500	40667720.000
116.000	40542872.000
116.500	40748572.000
117.000	40702876.000
117.500	40644680.000
118.000	40564532.000
118.500	40519248.000
119.000	40407336.000
119.500	40481436.000
120.000	40553740.000
120.500	40626728.000
121.000	40391224.000
121.500	40429260.000
122.000	40379312.000
122.500	40426816.000
123.000	40370632.000
123.500	40319172.000
124.000	40430104.000
124.500	40497224.000
125.000	40402436.000
125.500	40419780.000
126.000	40458696.000
126.500	40543780.000
127.000	40578336.000
127.500	40554152.000
128.000	40763304.000
128.500	40389988.000
129.000	40815084.000
129.500	40766212.000
130.000	40596216.000
130.500	40738108.000
131.000	40836236.000
131.500	40675556.000
132.000	40721720.000
132.500	40747720.000
133.000	40652596.000
133.500	40568644.000
134.000	40556204.000
134.500	40476880.000
135.000	40244000.000
135.500	40217396.000
136.000	40324872.000
136.500	40480192.000
137.000	40404468.000
137.500	40379304.000
138.000	40416904.000
138.500	40563308.000
139.000	40592416.000
139.500	40466500.000
140.000	40679384.000
140.500	40522128.000
141.000	40521708.000
141.500	40373088.000
142.000	40453272.000
142.500	40246080.000
143.000	40487672.000
143.500	40379716.000
144.000	40353732.000
144.500	40339712.000
145.000	40355352.000
145.500	40331464.000
146.000	40429268.000
146.500	40308844.000
147.000	40395788.000
147.500	40406100.000
148.000	40393740.000
148.500	40449196.000
149.000	40398736.000
149.500	40399940.000
150.000	40442132.000
150.500	40274764.000
151.000	40278880.000
151.500	40309688.000
152.000	40301492.000
152.500	40294484.000
153.000	40319572.000
153.500	40271080.000
154.000	40310928.000
154.500	40332692.000
155.000	40287028.000
155.500	40248500.000
156.000	40225548.000
156.500	40091704.000
157.000	40233732.000
157.500	40181372.000
158.000	40089268.000
158.500	40197316.000
159.000	40161344.000
159.500	40023472.000
160.000	40133220.000
160.500	40189960.000
161.000	40168304.000
161.500	40126296.000
162.000	40119792.000
162.500	40102668.000
163.000	40185868.000
163.500	40036460.000
164.000	39941376.000
164.500	39922816.000
165.000	39978140.000
165.500	40123852.000
166.000	39928020.000
166.500	39959968.000
167.000	39993104.000
167.500	39920780.000
168.000	39972872.000
168.500	40085200.000
169.000	40255916.000
169.500	40125908.000
170.000	40184256.000
170.500	40203052.000
171.000	40321200.000
171.500	40202652.000
172.000	40145892.000
172.500	40204288.000
173.000	40234572.000
173.500	40239912.000
174.000	40178496.000
174.500	40146660.000
175.000	40211256.000
175.500	40088488.000
176.000	40034016.000
176.500	40053096.000
177.000	40116524.000
177.500	40204688.000
178.000	40167880.000
178.500	40110408.000
179.000	40198140.000
179.500	40163812.000
180.000	40034032.000
180.500	40287468.000
181.000	40195684.000
181.500	40254636.000
182.000	40261620.000
182.500	40214084.000
183.000	40035240.000
183.500	40012536.000
184.000	40085200.000
184.500	40027940.000
185.000	40072168.000
185.500	40040936.000
186.000	40065664.000
186.500	40097788.000
187.000	40036028.000
187.500	39880892.000
188.000	39985780.000
188.500	40021020.000
189.000	39849116.000
189.500	39994688.000
190.000	39946200.000
190.500	40064448.000
191.000	40113664.000
191.500	40089224.000
192.000	40043356.000
192.500	39948644.000
193.000	39858780.000
193.500	39953868.000
194.000	40057952.000
194.500	39968000.000
195.000	39932856.000
195.500	39889348.000
196.000	40019012.000
196.500	40037640.000
197.000	40004004.000
197.500	40010880.000
198.000	40004036.000
198.500	40040924.000
199.000	40101860.000
199.500	40001184.000
200.000	40133612.000
200.500	39989852.000
201.000	40060012.000
201.500	40058788.000
202.000	39971228.000
202.500	40017788.000
203.000	40041728.000
203.500	39932880.000
204.000	39926040.000
204.500	39789344.000
205.000	39864416.000
205.500	39861988.000
206.000	39819796.000
206.500	40031980.000
207.000	39878496.000
207.500	39732956.000
208.000	39870448.000
208.500	39803372.000
209.000	39900628.000
209.500	39924824.000
210.000	39884920.000
210.500	39843116.000
211.000	39861612.000
211.500	39884916.000
212.000	39947404.000
212.500	39988656.000
213.000	39793368.000
213.500	39876048.000
214.000	39855568.000
214.500	39802204.000
215.000	39931652.000
215.500	40043728.000
216.000	39999144.000
216.500	39958752.000
217.000	39987408.000
217.500	39856776.000
218.000	39934480.000
218.500	39960340.000
219.000	39903436.000
219.500	39784960.000
220.000	39808540.000
220.500	39922348.000
221.000	39893356.000
221.500	39918340.000
222.000	39944200.000
222.500	39807004.000
223.000	39803380.000
223.500	39774560.000
224.000	39886940.000
224.500	39861620.000
225.000	39816956.000
225.500	39884528.000
226.000	39797364.000
226.500	39921184.000
227.000	39790156.000
227.500	39971236.000
228.000	39918780.000
228.500	39965588.000
229.000	39990240.000
229.500	39900604.000
230.000	39812588.000
230.500	39800124.000
231.000	39787340.000
231.500	39725760.000
232.000	39746496.000
232.500	39685848.000
233.000	39759328.000
233.500	39701816.000
234.000	39824980.000
234.500	39863196.000
235.000	39724944.000
235.500	39819396.000
236.000	40012108.000
236.500	39940532.000
237.000	39855136.000
237.500	39798952.000
238.000	39856756.000
238.500	39653212.000
239.000	39793312.000
239.500	39747704.000
240.000	39340092.000
240.500	39573788.000
241.000	39509588.000
241.500	39638828.000
242.000	39722844.000
242.500	39616184.000
243.000	39607044.000
243.500	39669848.000
244.000	39586832.000
244.500	39576908.000
245.000	39624928.000
245.500	39795740.000
246.000	39639724.000
246.500	39768088.000
247.000	39593568.000
247.500	39640824.000
248.000	39498980.000
248.500	39691028.000
249.000	39618600.000
249.500	39576492.000
250.000	39743252.000
250.500	39707768.000
251.000	39758440.000
251.500	39725352.000
252.000	39821380.000
252.500	39657920.000
253.000	39683844.000
253.500	39645648.000
254.000	39683436.000
254.500	39681832.000
255.000	39610244.000
255.500	39657548.000
256.000	39428464.000
256.500	39510752.000
257.000	39523896.000
257.500	39440336.000
258.000	39475704.000
258.500	39451660.000
259.000	39421792.000
259.500	39548428.000
260.000	39561860.000
260.500	39525896.000
261.000	39691000.000
261.500	39698592.000
262.000	39762100.000
262.500	39773260.000
263.000	39730412.000
263.500	39699796.000
264.000	39655128.000
264.500	39724140.000
265.000	39692620.000
265.500	39589628.000
266.000	39658332.000
266.500	39589232.000
267.000	39572176.000
267.500	39594768.000
268.000	39612628.000
268.500	39633664.000
269.000	39597976.000
269.500	39504572.000
270.000	39491884.000
270.500	39534188.000
271.000	39492288.000
271.500	39547208.000
272.000	39608204.000
272.500	39479180.000
273.000	39426440.000
273.500	39507252.000
274.000	39280692.000
274.500	39401784.000
275.000	39400172.000
275.500	39384076.000
276.000	39366032.000
276.500	39243296.000
277.000	39497780.000
277.500	39496156.000
278.000	39535288.000
278.500	39593964.000
279.000	39572968.000
279.500	39620872.000
280.000	39542092.000
280.500	39492284.000
281.000	39525884.000
281.500	39547192.000
282.000	39342876.000
282.500	39429232.000
283.000	39377028.000
283.500	39456048.000
284.000	39463516.000
284.500	39436696.000
285.000	39450868.000
285.500	39463928.000
286.000	39494664.000
286.500	39478124.000
287.000	39570160.000
287.500	39413500.000
288.000	39576492.000
288.500	39511256.000
289.000	39613060.000
289.500	39626520.000
290.000	39585236.000
290.500	39547620.000
291.000	39570164.000
291.500	39630428.000
292.000	39593132.000
292.500	39590828.000
293.000	39591244.000
293.500	39440320.000
294.000	39468604.000
294.500	39415908.000
295.000	39470604.000
295.500	39506188.000
296.000	39496664.000
296.500	39688668.000
297.000	39567452.000
297.500	39689360.000
298.000	39622568.000
298.500	39557496.000
299.000	39611908.000
299.500	39573388.000
